@    xaxis  label "t"
@    yaxis  label "RMSD (nm)"
           0.00          0.0003          0.4517 
          50.00          0.0965          0.4678 
         100.00          0.1110          0.4673 
         150.00          0.1029          0.4740 
         200.00          0.0904          0.4500 
         250.00          0.1309          0.4649 
         300.00          0.1386          0.4396 
         350.00          0.0767          0.4497 
         400.00          0.1221          0.4567 
         450.00          0.1644          0.4197 
         500.00          0.1576          0.4267 
         550.00          0.1443          0.4487 
         600.00          0.1373          0.4498 
         650.00          0.1537          0.4466 
         700.00          0.1376          0.4580 
         750.00          0.1005          0.4609 
         800.00          0.1346          0.4412 
         850.00          0.1375          0.4516 
         900.00          0.1293          0.4704 
         950.00          0.0852          0.4601 
        1000.00          0.1117          0.4377 
        1050.00          0.1697          0.4214 
        1100.00          0.1781          0.4144 
        1150.00          0.2017          0.3929 
        1200.00          0.1948          0.4017 
        1250.00          0.1652          0.4181 
        1300.00          0.1396          0.4199 
        1350.00          0.1442          0.4148 
        1400.00          0.1289          0.4246 
        1450.00          0.1289          0.4247 
        1500.00          0.1452          0.4240 
        1550.00          0.1370          0.4178 
        1600.00          0.0905          0.4480 
        1650.00          0.0415          0.4375 
        1700.00          0.1354          0.4366 
        1750.00          0.0591          0.4387 
        1800.00          0.1062          0.4377 
        1850.00          0.0858          0.4218 
        1900.00          0.0496          0.4431 
        1950.00          0.1177          0.4299 
        2000.00          0.1136          0.4304 
        2050.00          0.1379          0.4172 
        2100.00          0.1200          0.4216 
        2150.00          0.0551          0.4344 
        2200.00          0.0884          0.4485 
        2250.00          0.0989          0.4329 
        2300.00          0.0926          0.4360 
        2350.00          0.0793          0.4515 
        2400.00          0.1192          0.4201 
        2450.00          0.0454          0.4496 
        2500.00          0.0579          0.4442 
        2550.00          0.0466          0.4371 
        2600.00          0.0779          0.4403 
        2650.00          0.0516          0.4533 
        2700.00          0.0570          0.4471 
        2750.00          0.0999          0.4488 
        2800.00          0.1491          0.4198 
        2850.00          0.1220          0.4286 
        2900.00          0.0755          0.4453 
        2950.00          0.0527          0.4549 
        3000.00          0.0971          0.4222 
        3050.00          0.0970          0.4374 
        3100.00          0.1118          0.4376 
        3150.00          0.0584          0.4444 
        3200.00          0.0603          0.4507 
        3250.00          0.0891          0.4392 
        3300.00          0.0649          0.4528 
        3350.00          0.0718          0.4531 
        3400.00          0.0618          0.4354 
        3450.00          0.0892          0.4429 
        3500.00          0.0691          0.4419 
        3550.00          0.0698          0.4368 
        3600.00          0.0909          0.4439 
        3650.00          0.0829          0.4378 
        3700.00          0.0473          0.4467 
        3750.00          0.0341          0.4493 
        3800.00          0.0842          0.4450 
        3850.00          0.0601          0.4335 
        3900.00          0.0818          0.4392 
        3950.00          0.0855          0.4420 
        4000.00          0.0652          0.4441 
        4050.00          0.1031          0.4294 
        4100.00          0.1217          0.4336 
        4150.00          0.1118          0.4228 
        4200.00          0.1114          0.4285 
        4250.00          0.0691          0.4279 
        4300.00          0.0696          0.4231 
        4350.00          0.0453          0.4426 
        4400.00          0.0757          0.4357 
        4450.00          0.0722          0.4502 
        4500.00          0.0511          0.4493 
        4550.00          0.0550          0.4447 
        4600.00          0.0376          0.4460 
        4650.00          0.0615          0.4372 
        4700.00          0.0734          0.4332 
        4750.00          0.0554          0.4375 
        4800.00          0.0902          0.4323 
        4850.00          0.0610          0.4465 
        4900.00          0.0695          0.4429 
        4950.00          0.0770          0.4518 
        5000.00          0.0526          0.4542 
        5050.00          0.0478          0.4476 
        5100.00          0.0662          0.4360 
        5150.00          0.1168          0.4148 
        5200.00          0.0855          0.4390 
        5250.00          0.0850          0.4471 
        5300.00          0.0547          0.4496 
        5350.00          0.0249          0.4386 
        5400.00          0.0744          0.4505 
        5450.00          0.0588          0.4434 
        5500.00          0.0905          0.4379 
        5550.00          0.1203          0.4300 
        5600.00          0.0741          0.4467 
        5650.00          0.0707          0.4422 
        5700.00          0.0847          0.4285 
        5750.00          0.0810          0.4335 
        5800.00          0.0478          0.4536 
        5850.00          0.0630          0.4604 
        5900.00          0.0434          0.4391 
        5950.00          0.0535          0.4381 
        6000.00          0.0694          0.4290 
        6050.00          0.0669          0.4465 
        6100.00          0.0765          0.4357 
        6150.00          0.0819          0.4361 
        6200.00          0.0763          0.4337 
        6250.00          0.0632          0.4384 
        6300.00          0.0737          0.4410 
        6350.00          0.0437          0.4413 
        6400.00          0.0709          0.4492 
        6450.00          0.1073          0.4327 
        6500.00          0.0360          0.4585 
        6550.00          0.0480          0.4482 
        6600.00          0.0444          0.4451 
        6650.00          0.0901          0.4360 
        6700.00          0.0612          0.4372 
        6750.00          0.0761          0.4391 
        6800.00          0.0509          0.4327 
        6850.00          0.0620          0.4544 
        6900.00          0.0613          0.4349 
        6950.00          0.0671          0.4459 
        7000.00          0.1081          0.4414 
        7050.00          0.1033          0.4346 
        7100.00          0.0817          0.4406 
        7150.00          0.0690          0.4467 
        7200.00          0.0553          0.4389 
        7250.00          0.0334          0.4439 
        7300.00          0.0558          0.4348 
        7350.00          0.0749          0.4375 
        7400.00          0.0348          0.4466 
        7450.00          0.1011          0.4430 
        7500.00          0.1060          0.4299 
        7550.00          0.0578          0.4520 
        7600.00          0.0713          0.4394 
        7650.00          0.0619          0.4488 
        7700.00          0.0886          0.4313 
        7750.00          0.0726          0.4381 
        7800.00          0.0680          0.4395 
        7850.00          0.1235          0.4252 
        7900.00          0.1140          0.4363 
        7950.00          0.1179          0.4313 
        8000.00          0.0619          0.4448 
        8050.00          0.0435          0.4403 
        8100.00          0.0660          0.4463 
        8150.00          0.0936          0.4385 
        8200.00          0.0705          0.4447 
        8250.00          0.0695          0.4362 
        8300.00          0.1066          0.4374 
        8350.00          0.0783          0.4406 
        8400.00          0.0777          0.4439 
        8450.00          0.0463          0.4536 
        8500.00          0.0719          0.4395 
        8550.00          0.0448          0.4474 
        8600.00          0.0407          0.4488 
        8650.00          0.0337          0.4428 
        8700.00          0.0482          0.4568 
        8750.00          0.0473          0.4532 
        8800.00          0.1181          0.4283 
        8850.00          0.0612          0.4442 
        8900.00          0.0729          0.4503 
        8950.00          0.0627          0.4343 
        9000.00          0.0741          0.4487 
        9050.00          0.0498          0.4607 
        9100.00          0.0593          0.4430 
        9150.00          0.0548          0.4429 
        9200.00          0.1203          0.4315 
        9250.00          0.0865          0.4452 
        9300.00          0.0525          0.4530 
        9350.00          0.0490          0.4436 
        9400.00          0.0536          0.4497 
        9450.00          0.0470          0.4470 
        9500.00          0.0742          0.4386 
        9550.00          0.0538          0.4428 
        9600.00          0.0578          0.4510 
        9650.00          0.0564          0.4389 
        9700.00          0.0856          0.4465 
        9750.00          0.0547          0.4343 
        9800.00          0.0653          0.4519 
        9850.00          0.0595          0.4555 
        9900.00          0.0312          0.4501 
        9950.00          0.0593          0.4570 
       10000.00          0.0532          0.4458 
       10050.00          0.0868          0.4373 
       10100.00          0.0782          0.4470 
       10150.00          0.0697          0.4367 
       10200.00          0.0679          0.4331 
       10250.00          0.0597          0.4479 
       10300.00          0.0522          0.4487 
       10350.00          0.0510          0.4503 
       10400.00          0.0893          0.4524 
       10450.00          0.0731          0.4488 
       10500.00          0.0661          0.4412 
       10550.00          0.0400          0.4594 
       10600.00          0.0538          0.4411 
       10650.00          0.0488          0.4448 
       10700.00          0.0824          0.4471 
       10750.00          0.0704          0.4536 
       10800.00          0.0612          0.4479 
       10850.00          0.0851          0.4425 
       10900.00          0.0682          0.4468 
       10950.00          0.0455          0.4462 
       11000.00          0.0509          0.4439 
       11050.00          0.0725          0.4452 
       11100.00          0.0854          0.4533 
       11150.00          0.0477          0.4393 
       11200.00          0.0597          0.4557 
       11250.00          0.0669          0.4396 
       11300.00          0.0702          0.4464 
       11350.00          0.0834          0.4294 
       11400.00          0.1050          0.4221 
       11450.00          0.1021          0.4299 
       11500.00          0.0884          0.4405 
       11550.00          0.1329          0.4251 
       11600.00          0.1072          0.4380 
       11650.00          0.0842          0.4378 
       11700.00          0.1168          0.4248 
       11750.00          0.0817          0.4199 
       11800.00          0.0883          0.4338 
       11850.00          0.0741          0.4425 
       11900.00          0.0588          0.4473 
       11950.00          0.0895          0.4361 
       12000.00          0.0463          0.4471 
       12050.00          0.0539          0.4399 
       12100.00          0.1086          0.4242 
       12150.00          0.0963          0.4513 
       12200.00          0.0781          0.4440 
       12250.00          0.0586          0.4367 
       12300.00          0.0755          0.4492 
       12350.00          0.0846          0.4448 
       12400.00          0.0676          0.4335 
       12450.00          0.0386          0.4405 
       12500.00          0.0648          0.4466 
       12550.00          0.0538          0.4479 
       12600.00          0.0681          0.4492 
       12650.00          0.0711          0.4368 
       12700.00          0.0755          0.4409 
       12750.00          0.0992          0.4313 
       12800.00          0.0771          0.4361 
       12850.00          0.0929          0.4448 
       12900.00          0.0895          0.4541 
       12950.00          0.0735          0.4469 
       13000.00          0.0665          0.4389 
       13050.00          0.1190          0.4170 
       13100.00          0.0645          0.4406 
       13150.00          0.0915          0.4512 
       13200.00          0.0674          0.4469 
       13250.00          0.1280          0.4197 
       13300.00          0.0770          0.4525 
       13350.00          0.0775          0.4455 
       13400.00          0.0454          0.4483 
       13450.00          0.0617          0.4374 
       13500.00          0.0435          0.4522 
       13550.00          0.0651          0.4466 
       13600.00          0.0645          0.4404 
       13650.00          0.1015          0.4397 
       13700.00          0.0608          0.4501 
       13750.00          0.0728          0.4340 
       13800.00          0.0575          0.4359 
       13850.00          0.1122          0.4218 
       13900.00          0.0826          0.4447 
       13950.00          0.1007          0.4365 
       14000.00          0.0927          0.4463 
       14050.00          0.0893          0.4479 
       14100.00          0.0952          0.4485 
       14150.00          0.0713          0.4570 
       14200.00          0.0689          0.4362 
       14250.00          0.0448          0.4540 
       14300.00          0.0595          0.4311 
       14350.00          0.0672          0.4381 
       14400.00          0.0385          0.4505 
       14450.00          0.0832          0.4410 
       14500.00          0.0442          0.4757 
       14550.00          0.0562          0.4488 
       14600.00          0.0777          0.4406 
       14650.00          0.0432          0.4468 
       14700.00          0.0678          0.4377 
       14750.00          0.0688          0.4311 
       14800.00          0.0603          0.4351 
       14850.00          0.0527          0.4410 
       14900.00          0.0917          0.4411 
       14950.00          0.0639          0.4382 
       15000.00          0.0852          0.4551 
       15050.00          0.0622          0.4577 
       15100.00          0.0676          0.4485 
       15150.00          0.0741          0.4411 
       15200.00          0.0298          0.4503 
       15250.00          0.0444          0.4480 
       15300.00          0.0699          0.4336 
       15350.00          0.0832          0.4522 
       15400.00          0.0706          0.4237 
       15450.00          0.0538          0.4432 
       15500.00          0.0588          0.4279 
       15550.00          0.0774          0.4290 
       15600.00          0.0831          0.4416 
       15650.00          0.0578          0.4318 
       15700.00          0.0999          0.4349 
       15750.00          0.0573          0.4403 
       15800.00          0.0637          0.4376 
       15850.00          0.0581          0.4436 
       15900.00          0.1097          0.4277 
       15950.00          0.1719          0.3943 
       16000.00          0.0474          0.4474 
       16050.00          0.0444          0.4531 
       16100.00          0.0745          0.4441 
       16150.00          0.0647          0.4579 
       16200.00          0.0563          0.4556 
       16250.00          0.0505          0.4601 
       16300.00          0.0643          0.4422 
       16350.00          0.0920          0.4382 
       16400.00          0.0586          0.4540 
       16450.00          0.0678          0.4457 
       16500.00          0.0768          0.4553 
       16550.00          0.1323          0.4178 
       16600.00          0.1267          0.4203 
       16650.00          0.1297          0.4274 
       16700.00          0.0989          0.4385 
       16750.00          0.0437          0.4370 
       16800.00          0.0830          0.4419 
       16850.00          0.0637          0.4483 
       16900.00          0.0728          0.4454 
       16950.00          0.0489          0.4573 
       17000.00          0.0621          0.4440 
       17050.00          0.1041          0.4449 
       17100.00          0.0779          0.4408 
       17150.00          0.0588          0.4307 
       17200.00          0.0625          0.4590 
       17250.00          0.0659          0.4420 
       17300.00          0.0763          0.4419 
       17350.00          0.0605          0.4427 
       17400.00          0.0723          0.4373 
       17450.00          0.0676          0.4411 
       17500.00          0.0868          0.4518 
       17550.00          0.0676          0.4492 
       17600.00          0.0401          0.4435 
       17650.00          0.0820          0.4445 
       17700.00          0.0704          0.4368 
       17750.00          0.0841          0.4454 
       17800.00          0.0784          0.4369 
       17850.00          0.0346          0.4428 
       17900.00          0.0507          0.4471 
       17950.00          0.0730          0.4425 
       18000.00          0.0309          0.4538 
       18050.00          0.0743          0.4426 
       18100.00          0.0789          0.4292 
       18150.00          0.0764          0.4395 
       18200.00          0.0533          0.4490 
       18250.00          0.0627          0.4451 
       18300.00          0.0545          0.4463 
       18350.00          0.0564          0.4483 
       18400.00          0.0732          0.4478 
       18450.00          0.0396          0.4446 
       18500.00          0.0600          0.4524 
       18550.00          0.0513          0.4530 
       18600.00          0.0464          0.4416 
       18650.00          0.0735          0.4347 
       18700.00          0.0759          0.4356 
       18750.00          0.0945          0.4342 
       18800.00          0.0317          0.4474 
       18850.00          0.0485          0.4439 
       18900.00          0.0602          0.4462 
       18950.00          0.0832          0.4485 
       19000.00          0.0929          0.4326 
       19050.00          0.0689          0.4337 
       19100.00          0.0841          0.4426 
       19150.00          0.1272          0.4228 
       19200.00          0.1440          0.4157 
       19250.00          0.1276          0.4232 
       19300.00          0.1175          0.4312 
       19350.00          0.0949          0.4344 
       19400.00          0.0983          0.4397 
       19450.00          0.0683          0.4497 
       19500.00          0.0770          0.4417 
       19550.00          0.0601          0.4520 
       19600.00          0.0397          0.4606 
       19650.00          0.0403          0.4369 
       19700.00          0.0505          0.4486 
       19750.00          0.0846          0.4440 
       19800.00          0.0911          0.4364 
       19850.00          0.0634          0.4481 
       19900.00          0.0525          0.4384 
       19950.00          0.0898          0.4356 
       20000.00          0.0516          0.4525 
       20050.00          0.0501          0.4556 
       20100.00          0.0581          0.4486 
       20150.00          0.0859          0.4436 
       20200.00          0.0947          0.4361 
       20250.00          0.0575          0.4455 
       20300.00          0.0579          0.4431 
       20350.00          0.0364          0.4609 
       20400.00          0.0526          0.4304 
       20450.00          0.0514          0.4464 
       20500.00          0.0408          0.4453 
       20550.00          0.0750          0.4409 
       20600.00          0.0632          0.4385 
       20650.00          0.0485          0.4538 
       20700.00          0.0806          0.4499 
       20750.00          0.0952          0.4328 
       20800.00          0.0766          0.4438 
       20850.00          0.0656          0.4414 
       20900.00          0.0829          0.4434 
       20950.00          0.0595          0.4337 
       21000.00          0.0627          0.4295 
       21050.00          0.1304          0.4323 
       21100.00          0.0728          0.4480 
       21150.00          0.0844          0.4387 
       21200.00          0.0728          0.4388 
       21250.00          0.0627          0.4528 
       21300.00          0.0454          0.4551 
       21350.00          0.0706          0.4478 
       21400.00          0.0642          0.4387 
       21450.00          0.0676          0.4451 
       21500.00          0.0713          0.4392 
       21550.00          0.1193          0.4284 
       21600.00          0.1034          0.4263 
       21650.00          0.0544          0.4473 
       21700.00          0.0332          0.4556 
       21750.00          0.0513          0.4484 
       21800.00          0.0785          0.4623 
       21850.00          0.1330          0.4196 
       21900.00          0.1124          0.4217 
       21950.00          0.0811          0.4411 
       22000.00          0.0532          0.4471 
       22050.00          0.0650          0.4258 
       22100.00          0.0583          0.4489 
       22150.00          0.0624          0.4452 
       22200.00          0.0497          0.4382 
       22250.00          0.0427          0.4344 
       22300.00          0.1060          0.4242 
       22350.00          0.0913          0.4366 
       22400.00          0.0666          0.4489 
       22450.00          0.0644          0.4413 
       22500.00          0.0605          0.4521 
       22550.00          0.0988          0.4512 
       22600.00          0.0574          0.4448 
       22650.00          0.1103          0.4364 
       22700.00          0.0372          0.4414 
       22750.00          0.0498          0.4495 
       22800.00          0.0699          0.4523 
       22850.00          0.0725          0.4466 
       22900.00          0.0826          0.4356 
       22950.00          0.0545          0.4413 
       23000.00          0.0728          0.4447 
       23050.00          0.0806          0.4450 
       23100.00          0.0463          0.4464 
       23150.00          0.0765          0.4472 
       23200.00          0.0592          0.4482 
       23250.00          0.0507          0.4518 
       23300.00          0.0625          0.4592 
       23350.00          0.0868          0.4329 
       23400.00          0.0897          0.4485 
       23450.00          0.0599          0.4433 
       23500.00          0.0955          0.4504 
       23550.00          0.0495          0.4478 
       23600.00          0.0480          0.4539 
       23650.00          0.0406          0.4539 
       23700.00          0.0362          0.4492 
       23750.00          0.0812          0.4736 
       23800.00          0.0636          0.4442 
       23850.00          0.0621          0.4453 
       23900.00          0.0685          0.4518 
       23950.00          0.0587          0.4403 
       24000.00          0.0644          0.4392 
       24050.00          0.0692          0.4500 
       24100.00          0.0487          0.4404 
       24150.00          0.0629          0.4471 
       24200.00          0.0644          0.4428 
       24250.00          0.0605          0.4402 
       24300.00          0.0574          0.4405 
       24350.00          0.0668          0.4429 
       24400.00          0.0657          0.4478 
       24450.00          0.0504          0.4421 
       24500.00          0.0597          0.4364 
       24550.00          0.0457          0.4428 
       24600.00          0.0367          0.4474 
       24650.00          0.0414          0.4514 
       24700.00          0.0746          0.4397 
       24750.00          0.1140          0.4406 
       24800.00          0.1862          0.4032 
       24850.00          0.1866          0.3890 
       24900.00          0.1526          0.4083 
       24950.00          0.1691          0.3995 
       25000.00          0.1700          0.4028 
       25050.00          0.1680          0.4144 
       25100.00          0.1955          0.3905 
       25150.00          0.0916          0.4370 
       25200.00          0.0573          0.4427 
       25250.00          0.0631          0.4372 
       25300.00          0.0811          0.4330 
       25350.00          0.0672          0.4340 
       25400.00          0.0414          0.4429 
       25450.00          0.0806          0.4445 
       25500.00          0.0774          0.4458 
       25550.00          0.1152          0.4288 
       25600.00          0.0681          0.4369 
       25650.00          0.0594          0.4410 
       25700.00          0.0666          0.4413 
       25750.00          0.0492          0.4604 
       25800.00          0.0508          0.4531 
       25850.00          0.0414          0.4610 
       25900.00          0.1010          0.4493 
       25950.00          0.0924          0.4773 
       26000.00          0.0981          0.4749 
       26050.00          0.1311          0.4483 
       26100.00          0.2123          0.4136 
       26150.00          0.1950          0.4023 
       26200.00          0.1732          0.4238 
       26250.00          0.2097          0.4032 
       26300.00          0.2001          0.3961 
       26350.00          0.2219          0.3953 
       26400.00          0.1975          0.4303 
       26450.00          0.1874          0.4139 
       26500.00          0.1703          0.4245 
       26550.00          0.1876          0.4007 
       26600.00          0.2070          0.3890 
       26650.00          0.1839          0.4191 
       26700.00          0.2000          0.4439 
       26750.00          0.1998          0.4245 
       26800.00          0.2110          0.4106 
       26850.00          0.2375          0.3881 
       26900.00          0.2285          0.3752 
       26950.00          0.1663          0.4269 
       27000.00          0.1716          0.4120 
       27050.00          0.1517          0.4324 
       27100.00          0.1235          0.4471 
       27150.00          0.1695          0.4246 
       27200.00          0.1338          0.4465 
       27250.00          0.1301          0.4472 
       27300.00          0.1870          0.4281 
       27350.00          0.1345          0.4284 
       27400.00          0.1451          0.4364 
       27450.00          0.1084          0.4708 
       27500.00          0.0933          0.4648 
       27550.00          0.1051          0.4715 
       27600.00          0.0959          0.4691 
       27650.00          0.1459          0.4353 
       27700.00          0.1446          0.4295 
       27750.00          0.1559          0.4390 
       27800.00          0.1492          0.4239 
       27850.00          0.0508          0.4637 
       27900.00          0.1214          0.4674 
       27950.00          0.1187          0.4714 
       28000.00          0.1089          0.4630 
       28050.00          0.1752          0.4264 
       28100.00          0.0865          0.4749 
       28150.00          0.1166          0.4546 
       28200.00          0.1533          0.4308 
       28250.00          0.1511          0.4257 
       28300.00          0.0978          0.4645 
       28350.00          0.1116          0.4709 
       28400.00          0.1698          0.4323 
       28450.00          0.1612          0.4595 
       28500.00          0.1822          0.4389 
       28550.00          0.1985          0.4811 
       28600.00          0.2234          0.4638 
       28650.00          0.2364          0.4242 
       28700.00          0.1742          0.4521 
       28750.00          0.1246          0.4357 
       28800.00          0.1117          0.4583 
       28850.00          0.0786          0.4490 
       28900.00          0.0844          0.4709 
       28950.00          0.0760          0.4640 
       29000.00          0.1471          0.4427 
       29050.00          0.1183          0.4533 
       29100.00          0.1416          0.4422 
       29150.00          0.0916          0.4540 
       29200.00          0.1127          0.4596 
       29250.00          0.1299          0.4569 
       29300.00          0.1067          0.4732 
       29350.00          0.1124          0.4464 
       29400.00          0.1077          0.4551 
       29450.00          0.1161          0.4678 
       29500.00          0.0708          0.4351 
       29550.00          0.0753          0.4442 
       29600.00          0.0452          0.4461 
       29650.00          0.0497          0.4423 
       29700.00          0.0715          0.4417 
       29750.00          0.1265          0.4218 
       29800.00          0.1045          0.4331 
       29850.00          0.0849          0.4394 
       29900.00          0.0476          0.4410 
       29950.00          0.0825          0.4380 
       30000.00          0.0867          0.4364 
       30050.00          0.0656          0.4447 
       30100.00          0.0516          0.4284 
       30150.00          0.0825          0.4325 
       30200.00          0.0706          0.4419 
       30250.00          0.0384          0.4411 
       30300.00          0.0765          0.4479 
       30350.00          0.0592          0.4562 
       30400.00          0.0769          0.4388 
       30450.00          0.1017          0.4337 
       30500.00          0.1067          0.4331 
       30550.00          0.0576          0.4486 
       30600.00          0.0920          0.4352 
       30650.00          0.0888          0.4401 
       30700.00          0.0526          0.4542 
       30750.00          0.0669          0.4541 
       30800.00          0.0317          0.4548 
       30850.00          0.0404          0.4508 
       30900.00          0.0727          0.4463 
       30950.00          0.1123          0.4346 
       31000.00          0.0593          0.4344 
       31050.00          0.0671          0.4471 
       31100.00          0.0673          0.4388 
       31150.00          0.0386          0.4508 
       31200.00          0.0768          0.4416 
       31250.00          0.0801          0.4334 
       31300.00          0.0917          0.4345 
       31350.00          0.0725          0.4385 
       31400.00          0.0370          0.4464 
       31450.00          0.0668          0.4647 
       31500.00          0.0553          0.4422 
       31550.00          0.0760          0.4374 
       31600.00          0.0760          0.4434 
       31650.00          0.0597          0.4399 
       31700.00          0.0862          0.4507 
       31750.00          0.0585          0.4480 
       31800.00          0.0619          0.4367 
       31850.00          0.0707          0.4438 
       31900.00          0.0721          0.4458 
       31950.00          0.0999          0.4312 
       32000.00          0.0963          0.4364 
       32050.00          0.0669          0.4428 
       32100.00          0.0959          0.4367 
       32150.00          0.0743          0.4509 
       32200.00          0.1315          0.4292 
       32250.00          0.1307          0.4333 
       32300.00          0.0949          0.4351 
       32350.00          0.0528          0.4386 
       32400.00          0.0696          0.4474 
       32450.00          0.1112          0.4293 
       32500.00          0.1018          0.4417 
       32550.00          0.0746          0.4545 
       32600.00          0.0602          0.4407 
       32650.00          0.0652          0.4345 
       32700.00          0.0491          0.4468 
       32750.00          0.0474          0.4412 
       32800.00          0.0270          0.4436 
       32850.00          0.1013          0.4418 
       32900.00          0.0425          0.4467 
       32950.00          0.0870          0.4389 
       33000.00          0.1202          0.4199 
       33050.00          0.0609          0.4433 
       33100.00          0.0913          0.4375 
       33150.00          0.0784          0.4326 
       33200.00          0.0859          0.4475 
       33250.00          0.0377          0.4465 
       33300.00          0.0623          0.4418 
       33350.00          0.0599          0.4323 
       33400.00          0.0755          0.4273 
       33450.00          0.0551          0.4382 
       33500.00          0.0425          0.4363 
       33550.00          0.0488          0.4544 
       33600.00          0.0370          0.4574 
       33650.00          0.0645          0.4535 
       33700.00          0.0640          0.4409 
       33750.00          0.0784          0.4493 
       33800.00          0.0410          0.4327 
       33850.00          0.0497          0.4380 
       33900.00          0.0688          0.4521 
       33950.00          0.0760          0.4450 
       34000.00          0.1182          0.4263 
       34050.00          0.1094          0.4359 
       34100.00          0.0987          0.4515 
       34150.00          0.1055          0.4356 
       34200.00          0.0771          0.4448 
       34250.00          0.0652          0.4522 
       34300.00          0.0559          0.4491 
       34350.00          0.0540          0.4602 
       34400.00          0.0438          0.4476 
       34450.00          0.0844          0.4473 
       34500.00          0.1507          0.4284 
       34550.00          0.0752          0.4491 
       34600.00          0.0448          0.4396 
       34650.00          0.0610          0.4483 
       34700.00          0.0490          0.4466 
       34750.00          0.0748          0.4435 
       34800.00          0.0947          0.4324 
       34850.00          0.0740          0.4445 
       34900.00          0.0668          0.4387 
       34950.00          0.0704          0.4488 
       35000.00          0.0884          0.4431 
       35050.00          0.0783          0.4525 
       35100.00          0.0560          0.4469 
       35150.00          0.0754          0.4372 
       35200.00          0.1010          0.4382 
       35250.00          0.0560          0.4621 
       35300.00          0.0487          0.4418 
       35350.00          0.0627          0.4391 
       35400.00          0.0345          0.4588 
       35450.00          0.0501          0.4542 
       35500.00          0.0918          0.4395 
       35550.00          0.0628          0.4445 
       35600.00          0.0949          0.4301 
       35650.00          0.0832          0.4446 
       35700.00          0.0569          0.4415 
       35750.00          0.0728          0.4326 
       35800.00          0.0862          0.4472 
       35850.00          0.0555          0.4444 
       35900.00          0.0509          0.4572 
       35950.00          0.1230          0.4275 
       36000.00          0.1099          0.4302 
       36050.00          0.0925          0.4381 
       36100.00          0.0930          0.4349 
       36150.00          0.0670          0.4271 
       36200.00          0.0721          0.4426 
       36250.00          0.0502          0.4518 
       36300.00          0.0698          0.4482 
       36350.00          0.0420          0.4460 
       36400.00          0.0497          0.4503 
       36450.00          0.0654          0.4478 
       36500.00          0.0882          0.4418 
       36550.00          0.0617          0.4453 
       36600.00          0.0551          0.4397 
       36650.00          0.0527          0.4485 
       36700.00          0.0511          0.4430 
       36750.00          0.0667          0.4517 
       36800.00          0.0577          0.4472 
       36850.00          0.0767          0.4466 
       36900.00          0.1036          0.4320 
       36950.00          0.0694          0.4480 
       37000.00          0.0825          0.4471 
       37050.00          0.0386          0.4523 
       37100.00          0.0891          0.4383 
       37150.00          0.1120          0.4246 
       37200.00          0.0701          0.4433 
       37250.00          0.0613          0.4378 
       37300.00          0.0288          0.4464 
       37350.00          0.1267          0.4290 
       37400.00          0.0364          0.4633 
       37450.00          0.0329          0.4499 
       37500.00          0.1231          0.4308 
       37550.00          0.0555          0.4435 
       37600.00          0.0764          0.4353 
       37650.00          0.0621          0.4378 
       37700.00          0.0939          0.4420 
       37750.00          0.0611          0.4498 
       37800.00          0.0591          0.4547 
       37850.00          0.0832          0.4398 
       37900.00          0.0771          0.4479 
       37950.00          0.1401          0.4215 
       38000.00          0.1009          0.4279 
       38050.00          0.0481          0.4348 
       38100.00          0.0651          0.4441 
       38150.00          0.0583          0.4415 
       38200.00          0.0491          0.4400 
       38250.00          0.1026          0.4344 
       38300.00          0.0653          0.4505 
       38350.00          0.0691          0.4392 
       38400.00          0.0780          0.4449 
       38450.00          0.0674          0.4303 
       38500.00          0.0974          0.4459 
       38550.00          0.0758          0.4346 
       38600.00          0.1003          0.4338 
       38650.00          0.1213          0.4298 
       38700.00          0.1016          0.4309 
       38750.00          0.1208          0.4405 
       38800.00          0.0648          0.4422 
       38850.00          0.0786          0.4354 
       38900.00          0.0917          0.4306 
       38950.00          0.0746          0.4572 
       39000.00          0.0613          0.4408 
       39050.00          0.0698          0.4468 
       39100.00          0.0816          0.4261 
       39150.00          0.0567          0.4491 
       39200.00          0.0844          0.4336 
       39250.00          0.0747          0.4373 
       39300.00          0.0618          0.4381 
       39350.00          0.0598          0.4442 
       39400.00          0.0359          0.4452 
       39450.00          0.1120          0.4262 
       39500.00          0.0657          0.4385 
       39550.00          0.0502          0.4408 
       39600.00          0.0520          0.4437 
       39650.00          0.0451          0.4355 
       39700.00          0.0704          0.4415 
       39750.00          0.0542          0.4570 
       39800.00          0.0545          0.4567 
       39850.00          0.0649          0.4288 
       39900.00          0.0488          0.4552 
       39950.00          0.0421          0.4442 
       40000.00          0.0834          0.4386 
       40050.00          0.0553          0.4472 
       40100.00          0.0360          0.4531 
       40150.00          0.0763          0.4390 
       40200.00          0.1143          0.4379 
       40250.00          0.0338          0.4439 
       40300.00          0.0599          0.4519 
       40350.00          0.0722          0.4428 
       40400.00          0.0437          0.4614 
       40450.00          0.0806          0.4465 
       40500.00          0.0511          0.4508 
       40550.00          0.0349          0.4495 
       40600.00          0.0630          0.4447 
       40650.00          0.0507          0.4556 
       40700.00          0.0829          0.4451 
       40750.00          0.0431          0.4472 
       40800.00          0.0405          0.4493 
       40850.00          0.0476          0.4410 
       40900.00          0.0850          0.4412 
       40950.00          0.0328          0.4399 
       41000.00          0.0490          0.4469 
       41050.00          0.0615          0.4405 
       41100.00          0.0696          0.4527 
       41150.00          0.0701          0.4377 
       41200.00          0.0554          0.4381 
       41250.00          0.0732          0.4369 
       41300.00          0.0727          0.4348 
       41350.00          0.0593          0.4450 
       41400.00          0.0520          0.4492 
       41450.00          0.0552          0.4522 
       41500.00          0.1054          0.4352 
       41550.00          0.0345          0.4601 
       41600.00          0.0515          0.4439 
       41650.00          0.0433          0.4426 
       41700.00          0.0661          0.4433 
       41750.00          0.0720          0.4257 
       41800.00          0.0727          0.4574 
       41850.00          0.0618          0.4480 
       41900.00          0.0686          0.4508 
       41950.00          0.0731          0.4420 
       42000.00          0.0416          0.4545 
       42050.00          0.0518          0.4353 
       42100.00          0.0778          0.4449 
       42150.00          0.1296          0.4258 
       42200.00          0.0757          0.4491 
       42250.00          0.0837          0.4495 
       42300.00          0.0570          0.4475 
       42350.00          0.0694          0.4460 
       42400.00          0.0588          0.4431 
       42450.00          0.0564          0.4557 
       42500.00          0.0602          0.4422 
       42550.00          0.0575          0.4381 
       42600.00          0.0620          0.4351 
       42650.00          0.0543          0.4555 
       42700.00          0.0468          0.4448 
       42750.00          0.0816          0.4385 
       42800.00          0.0460          0.4395 
       42850.00          0.0517          0.4488 
       42900.00          0.1045          0.4330 
       42950.00          0.0546          0.4364 
       43000.00          0.0379          0.4579 
       43050.00          0.0675          0.4445 
       43100.00          0.0641          0.4462 
       43150.00          0.0484          0.4359 
       43200.00          0.0487          0.4314 
       43250.00          0.0652          0.4446 
       43300.00          0.0713          0.4472 
       43350.00          0.0534          0.4673 
       43400.00          0.0594          0.4441 
       43450.00          0.0958          0.4252 
       43500.00          0.0761          0.4374 
       43550.00          0.0886          0.4348 
       43600.00          0.0970          0.4472 
       43650.00          0.0755          0.4419 
       43700.00          0.0559          0.4503 
       43750.00          0.0834          0.4359 
       43800.00          0.0782          0.4481 
       43850.00          0.0417          0.4469 
       43900.00          0.0983          0.4359 
       43950.00          0.0979          0.4368 
       44000.00          0.0678          0.4312 
       44050.00          0.0820          0.4334 
       44100.00          0.0866          0.4193 
       44150.00          0.1128          0.4230 
       44200.00          0.1526          0.4199 
       44250.00          0.1345          0.4342 
       44300.00          0.1280          0.4614 
       44350.00          0.1053          0.4478 
       44400.00          0.0888          0.4831 
       44450.00          0.1089          0.4632 
       44500.00          0.1277          0.4439 
       44550.00          0.1333          0.4503 
       44600.00          0.1357          0.4487 
       44650.00          0.0755          0.4511 
       44700.00          0.0988          0.4524 
       44750.00          0.1276          0.4458 
       44800.00          0.1349          0.4474 
       44850.00          0.0856          0.4688 
       44900.00          0.1266          0.4373 
       44950.00          0.1927          0.4157 
       45000.00          0.0922          0.4450 
       45050.00          0.0776          0.4571 
       45100.00          0.0961          0.4635 
       45150.00          0.1415          0.4616 
       45200.00          0.2141          0.4132 
       45250.00          0.2037          0.4122 
       45300.00          0.1512          0.4325 
       45350.00          0.1516          0.4309 
       45400.00          0.1189          0.4360 
       45450.00          0.0644          0.4437 
       45500.00          0.0864          0.4374 
       45550.00          0.0511          0.4536 
       45600.00          0.0755          0.4562 
       45650.00          0.0968          0.4392 
       45700.00          0.0504          0.4476 
       45750.00          0.0449          0.4484 
       45800.00          0.0601          0.4593 
       45850.00          0.0608          0.4357 
       45900.00          0.0646          0.4522 
       45950.00          0.0769          0.4454 
       46000.00          0.0746          0.4364 
       46050.00          0.0651          0.4403 
       46100.00          0.0505          0.4439 
       46150.00          0.0750          0.4451 
       46200.00          0.0730          0.4488 
       46250.00          0.1310          0.4185 
       46300.00          0.1031          0.4572 
       46350.00          0.0628          0.4370 
       46400.00          0.0831          0.4506 
       46450.00          0.0602          0.4312 
       46500.00          0.0604          0.4583 
       46550.00          0.0470          0.4452 
       46600.00          0.0773          0.4442 
       46650.00          0.0559          0.4560 
       46700.00          0.0866          0.4409 
       46750.00          0.1194          0.4262 
       46800.00          0.0873          0.4386 
       46850.00          0.0687          0.4443 
       46900.00          0.0990          0.4515 
       46950.00          0.0820          0.4496 
       47000.00          0.0754          0.4443 
       47050.00          0.0994          0.4362 
       47100.00          0.0367          0.4424 
       47150.00          0.0615          0.4495 
       47200.00          0.0472          0.4303 
       47250.00          0.0529          0.4498 
       47300.00          0.0651          0.4453 
       47350.00          0.0665          0.4420 
       47400.00          0.1122          0.4349 
       47450.00          0.1129          0.4413 
       47500.00          0.0708          0.4287 
       47550.00          0.1095          0.4335 
       47600.00          0.0725          0.4487 
       47650.00          0.0686          0.4377 
       47700.00          0.0765          0.4372 
       47750.00          0.0772          0.4448 
       47800.00          0.0732          0.4560 
       47850.00          0.0673          0.4372 
       47900.00          0.0922          0.4453 
       47950.00          0.0721          0.4472 
       48000.00          0.0786          0.4426 
       48050.00          0.0820          0.4393 
       48100.00          0.0438          0.4443 
       48150.00          0.0580          0.4377 
       48200.00          0.0387          0.4411 
       48250.00          0.0756          0.4367 
       48300.00          0.1137          0.4286 
       48350.00          0.0632          0.4488 
       48400.00          0.0828          0.4492 
       48450.00          0.0673          0.4448 
       48500.00          0.0698          0.4510 
       48550.00          0.0513          0.4480 
       48600.00          0.1153          0.4349 
       48650.00          0.1194          0.4271 
       48700.00          0.0598          0.4417 
       48750.00          0.1020          0.4353 
       48800.00          0.0722          0.4492 
       48850.00          0.0773          0.4351 
       48900.00          0.0767          0.4464 
       48950.00          0.0737          0.4380 
       49000.00          0.0539          0.4490 
       49050.00          0.0644          0.4346 
       49100.00          0.1072          0.4454 
       49150.00          0.0703          0.4324 
       49200.00          0.0770          0.4438 
       49250.00          0.0744          0.4377 
       49300.00          0.0279          0.4577 
       49350.00          0.0993          0.4355 
       49400.00          0.0474          0.4546 
       49450.00          0.0611          0.4555 
       49500.00          0.0758          0.4480 
       49550.00          0.0635          0.4363 
       49600.00          0.0697          0.4357 
       49650.00          0.0755          0.4456 
       49700.00          0.0808          0.4303 
       49750.00          0.0597          0.4437 
       49800.00          0.0797          0.4456 
       49850.00          0.0611          0.4375 
       49900.00          0.0865          0.4335 
       49950.00          0.0597          0.4519 
       50000.00          0.0635          0.4398 
       50050.00          0.0683          0.4467 
       50100.00          0.0489          0.4541 
       50150.00          0.0590          0.4575 
       50200.00          0.0544          0.4466 
       50250.00          0.0758          0.4484 
       50300.00          0.0611          0.4382 
       50350.00          0.0668          0.4415 
       50400.00          0.0528          0.4511 
       50450.00          0.0560          0.4518 
       50500.00          0.0450          0.4528 
       50550.00          0.0532          0.4482 
       50600.00          0.0880          0.4322 
       50650.00          0.0637          0.4380 
       50700.00          0.0577          0.4379 
       50750.00          0.0572          0.4431 
       50800.00          0.0800          0.4403 
       50850.00          0.0520          0.4597 
       50900.00          0.0370          0.4561 
       50950.00          0.0836          0.4502 
       51000.00          0.0603          0.4375 
       51050.00          0.0930          0.4425 
       51100.00          0.0647          0.4557 
       51150.00          0.1006          0.4504 
       51200.00          0.0538          0.4476 
       51250.00          0.0772          0.4409 
       51300.00          0.0668          0.4532 
       51350.00          0.0429          0.4549 
       51400.00          0.0952          0.4413 
       51450.00          0.1129          0.4309 
       51500.00          0.1418          0.4081 
       51550.00          0.0840          0.4411 
       51600.00          0.0627          0.4473 
       51650.00          0.0491          0.4512 
       51700.00          0.0624          0.4472 
       51750.00          0.0428          0.4558 
       51800.00          0.0885          0.4435 
       51850.00          0.1117          0.4316 
       51900.00          0.0417          0.4507 
       51950.00          0.0592          0.4393 
       52000.00          0.0789          0.4494 
       52050.00          0.1264          0.4229 
       52100.00          0.0603          0.4345 
       52150.00          0.0743          0.4463 
       52200.00          0.0701          0.4509 
       52250.00          0.0598          0.4368 
       52300.00          0.0521          0.4464 
       52350.00          0.1133          0.4347 
       52400.00          0.1269          0.4092 
       52450.00          0.1114          0.4323 
       52500.00          0.1460          0.4122 
       52550.00          0.1295          0.4314 
       52600.00          0.0742          0.4431 
       52650.00          0.0877          0.4572 
       52700.00          0.1459          0.4309 
       52750.00          0.0993          0.4574 
       52800.00          0.0885          0.4523 
       52850.00          0.1034          0.4568 
       52900.00          0.1999          0.3913 
       52950.00          0.1186          0.4592 
       53000.00          0.1068          0.4555 
       53050.00          0.1322          0.4397 
       53100.00          0.1323          0.4322 
       53150.00          0.1622          0.4112 
       53200.00          0.1176          0.4667 
       53250.00          0.1091          0.4345 
       53300.00          0.1675          0.4433 
       53350.00          0.0810          0.4713 
       53400.00          0.1277          0.4769 
       53450.00          0.0995          0.4504 
       53500.00          0.1152          0.4500 
       53550.00          0.1617          0.4430 
       53600.00          0.2154          0.4171 
       53650.00          0.1727          0.4311 
       53700.00          0.1384          0.4566 
       53750.00          0.0730          0.4709 
       53800.00          0.0741          0.4524 
       53850.00          0.0622          0.4662 
       53900.00          0.0525          0.4662 
       53950.00          0.0614          0.4609 
       54000.00          0.1436          0.4308 
       54050.00          0.1709          0.4125 
       54100.00          0.1585          0.4273 
       54150.00          0.1607          0.4293 
       54200.00          0.2143          0.4123 
       54250.00          0.1557          0.4356 
       54300.00          0.1932          0.4212 
       54350.00          0.2066          0.4054 
       54400.00          0.2002          0.3963 
       54450.00          0.1843          0.4064 
       54500.00          0.1966          0.3970 
       54550.00          0.1468          0.4373 
       54600.00          0.1301          0.4549 
       54650.00          0.1085          0.4662 
       54700.00          0.1735          0.4325 
       54750.00          0.0662          0.4628 
       54800.00          0.0714          0.4723 
       54850.00          0.0782          0.4777 
       54900.00          0.1351          0.4711 
       54950.00          0.0528          0.4605 
       55000.00          0.1370          0.4303 
       55050.00          0.1666          0.4230 
       55100.00          0.1032          0.4535 
       55150.00          0.0903          0.4775 
       55200.00          0.1166          0.4718 
       55250.00          0.0967          0.4735 
       55300.00          0.1287          0.4670 
       55350.00          0.0868          0.4738 
       55400.00          0.0926          0.4773 
       55450.00          0.1314          0.4659 
       55500.00          0.0773          0.4756 
       55550.00          0.1231          0.4560 
       55600.00          0.0797          0.4580 
       55650.00          0.0801          0.4540 
       55700.00          0.1087          0.4436 
       55750.00          0.1626          0.4285 
       55800.00          0.1814          0.4255 
       55850.00          0.1318          0.4443 
       55900.00          0.1933          0.4185 
       55950.00          0.1487          0.4420 
       56000.00          0.0741          0.4640 
       56050.00          0.1386          0.4456 
       56100.00          0.1076          0.4714 
       56150.00          0.0947          0.4711 
       56200.00          0.1177          0.4372 
       56250.00          0.1042          0.4501 
       56300.00          0.1029          0.4482 
       56350.00          0.1596          0.4235 
       56400.00          0.0803          0.4612 
       56450.00          0.0508          0.4525 
       56500.00          0.0668          0.4424 
       56550.00          0.0594          0.4441 
       56600.00          0.0930          0.4337 
       56650.00          0.0846          0.4494 
       56700.00          0.0697          0.4468 
       56750.00          0.0600          0.4358 
       56800.00          0.1069          0.4379 
       56850.00          0.0999          0.4390 
       56900.00          0.1111          0.4306 
       56950.00          0.0713          0.4628 
       57000.00          0.0746          0.4531 
       57050.00          0.0545          0.4473 
       57100.00          0.0537          0.4539 
       57150.00          0.0432          0.4374 
       57200.00          0.0727          0.4419 
       57250.00          0.0849          0.4366 
       57300.00          0.0470          0.4477 
       57350.00          0.0440          0.4543 
       57400.00          0.0504          0.4539 
       57450.00          0.1134          0.4446 
       57500.00          0.1515          0.4166 
       57550.00          0.0845          0.4479 
       57600.00          0.1364          0.4209 
       57650.00          0.1080          0.4267 
       57700.00          0.0854          0.4448 
       57750.00          0.0956          0.4320 
       57800.00          0.0713          0.4500 
       57850.00          0.0543          0.4386 
       57900.00          0.0645          0.4373 
       57950.00          0.0502          0.4432 
       58000.00          0.0904          0.4407 
       58050.00          0.0662          0.4396 
       58100.00          0.0788          0.4411 
       58150.00          0.0930          0.4315 
       58200.00          0.0679          0.4301 
       58250.00          0.0948          0.4425 
       58300.00          0.0352          0.4471 
       58350.00          0.0454          0.4398 
       58400.00          0.0827          0.4399 
       58450.00          0.0438          0.4453 
       58500.00          0.0505          0.4425 
       58550.00          0.0608          0.4462 
       58600.00          0.0629          0.4412 
       58650.00          0.0525          0.4586 
       58700.00          0.0767          0.4335 
       58750.00          0.0601          0.4438 
       58800.00          0.0294          0.4443 
       58850.00          0.0534          0.4424 
       58900.00          0.0642          0.4470 
       58950.00          0.0303          0.4476 
       59000.00          0.0436          0.4593 
       59050.00          0.0741          0.4415 
       59100.00          0.1080          0.4265 
       59150.00          0.0867          0.4317 
       59200.00          0.1259          0.4338 
       59250.00          0.0749          0.4391 
       59300.00          0.0672          0.4361 
       59350.00          0.0705          0.4411 
       59400.00          0.0669          0.4436 
       59450.00          0.0565          0.4367 
       59500.00          0.0674          0.4451 
       59550.00          0.0783          0.4440 
       59600.00          0.0464          0.4532 
       59650.00          0.0607          0.4584 
       59700.00          0.0617          0.4349 
       59750.00          0.0645          0.4371 
       59800.00          0.0648          0.4459 
       59850.00          0.0497          0.4481 
       59900.00          0.0830          0.4301 
       59950.00          0.0838          0.4413 
       60000.00          0.0879          0.4441 
       60050.00          0.0586          0.4538 
       60100.00          0.0512          0.4558 
       60150.00          0.0658          0.4436 
       60200.00          0.0748          0.4457 
       60250.00          0.0487          0.4498 
       60300.00          0.0753          0.4337 
       60350.00          0.0608          0.4398 
       60400.00          0.0894          0.4297 
       60450.00          0.0794          0.4469 
       60500.00          0.0492          0.4462 
       60550.00          0.0637          0.4508 
       60600.00          0.0811          0.4430 
       60650.00          0.0612          0.4515 
       60700.00          0.0498          0.4451 
       60750.00          0.0556          0.4484 
       60800.00          0.0822          0.4419 
       60850.00          0.0686          0.4404 
       60900.00          0.0647          0.4328 
       60950.00          0.1091          0.4346 
       61000.00          0.0510          0.4522 
       61050.00          0.0498          0.4376 
       61100.00          0.0679          0.4589 
       61150.00          0.0768          0.4396 
       61200.00          0.1222          0.4173 
       61250.00          0.0672          0.4361 
       61300.00          0.0557          0.4350 
       61350.00          0.0680          0.4360 
       61400.00          0.0816          0.4471 
       61450.00          0.0920          0.4333 
       61500.00          0.0850          0.4437 
       61550.00          0.0838          0.4377 
       61600.00          0.0818          0.4484 
       61650.00          0.0787          0.4443 
       61700.00          0.0777          0.4392 
       61750.00          0.0866          0.4377 
       61800.00          0.0859          0.4362 
       61850.00          0.0918          0.4577 
       61900.00          0.0711          0.4414 
       61950.00          0.0709          0.4437 
       62000.00          0.0690          0.4506 
       62050.00          0.0670          0.4315 
       62100.00          0.0788          0.4396 
       62150.00          0.0631          0.4383 
       62200.00          0.0586          0.4482 
       62250.00          0.0722          0.4427 
       62300.00          0.0730          0.4352 
       62350.00          0.0866          0.4385 
       62400.00          0.0799          0.4478 
       62450.00          0.0584          0.4478 
       62500.00          0.0577          0.4355 
       62550.00          0.1350          0.4179 
       62600.00          0.0748          0.4306 
       62650.00          0.0753          0.4334 
       62700.00          0.0631          0.4347 
       62750.00          0.0708          0.4387 
       62800.00          0.0689          0.4399 
       62850.00          0.0568          0.4523 
       62900.00          0.0893          0.4309 
       62950.00          0.0838          0.4371 
       63000.00          0.0530          0.4369 
       63050.00          0.0711          0.4386 
       63100.00          0.0550          0.4482 
       63150.00          0.1101          0.4454 
       63200.00          0.0435          0.4579 
       63250.00          0.0719          0.4387 
       63300.00          0.0329          0.4506 
       63350.00          0.0466          0.4483 
       63400.00          0.0652          0.4428 
       63450.00          0.0890          0.4307 
       63500.00          0.0623          0.4456 
       63550.00          0.1332          0.4157 
       63600.00          0.0440          0.4563 
       63650.00          0.0642          0.4481 
       63700.00          0.0546          0.4479 
       63750.00          0.0472          0.4502 
       63800.00          0.0590          0.4405 
       63850.00          0.0673          0.4349 
       63900.00          0.0457          0.4471 
       63950.00          0.0671          0.4402 
       64000.00          0.0805          0.4466 
       64050.00          0.1201          0.4154 
       64100.00          0.1291          0.4318 
       64150.00          0.0718          0.4419 
       64200.00          0.0732          0.4423 
       64250.00          0.0653          0.4270 
       64300.00          0.0606          0.4382 
       64350.00          0.0532          0.4428 
       64400.00          0.0611          0.4501 
       64450.00          0.0782          0.4380 
       64500.00          0.0857          0.4404 
       64550.00          0.0828          0.4453 
       64600.00          0.0870          0.4352 
       64650.00          0.1055          0.4355 
       64700.00          0.1056          0.4354 
       64750.00          0.1339          0.4195 
       64800.00          0.0484          0.4473 
       64850.00          0.0570          0.4439 
       64900.00          0.0590          0.4353 
       64950.00          0.0400          0.4373 
       65000.00          0.0640          0.4433 
       65050.00          0.0602          0.4452 
       65100.00          0.1443          0.4218 
       65150.00          0.0927          0.4436 
       65200.00          0.0734          0.4406 
       65250.00          0.0545          0.4435 
       65300.00          0.0599          0.4431 
       65350.00          0.0692          0.4417 
       65400.00          0.0623          0.4402 
       65450.00          0.0691          0.4457 
       65500.00          0.0865          0.4482 
       65550.00          0.0351          0.4480 
       65600.00          0.0565          0.4414 
       65650.00          0.0546          0.4361 
       65700.00          0.0755          0.4336 
       65750.00          0.0320          0.4587 
       65800.00          0.0477          0.4531 
       65850.00          0.0640          0.4413 
       65900.00          0.0353          0.4486 
       65950.00          0.0870          0.4329 
       66000.00          0.0587          0.4413 
       66050.00          0.0926          0.4323 
       66100.00          0.0684          0.4404 
       66150.00          0.0638          0.4522 
       66200.00          0.0535          0.4420 
       66250.00          0.0580          0.4488 
       66300.00          0.0408          0.4489 
       66350.00          0.0464          0.4471 
       66400.00          0.0805          0.4364 
       66450.00          0.0741          0.4522 
       66500.00          0.0961          0.4469 
       66550.00          0.0832          0.4472 
       66600.00          0.0750          0.4413 
       66650.00          0.0627          0.4489 
       66700.00          0.0790          0.4438 
       66750.00          0.0548          0.4616 
       66800.00          0.0854          0.4392 
       66850.00          0.0857          0.4447 
       66900.00          0.0774          0.4440 
       66950.00          0.0665          0.4399 
       67000.00          0.1096          0.4493 
       67050.00          0.1002          0.4426 
       67100.00          0.0734          0.4480 
       67150.00          0.1317          0.4209 
       67200.00          0.0566          0.4396 
       67250.00          0.0533          0.4400 
       67300.00          0.0729          0.4412 
       67350.00          0.0867          0.4436 
       67400.00          0.0587          0.4356 
       67450.00          0.0947          0.4407 
       67500.00          0.0709          0.4506 
       67550.00          0.0674          0.4547 
       67600.00          0.0761          0.4389 
       67650.00          0.1239          0.4228 
       67700.00          0.1152          0.4405 
       67750.00          0.0553          0.4470 
       67800.00          0.0468          0.4355 
       67850.00          0.0350          0.4542 
       67900.00          0.0711          0.4559 
       67950.00          0.0601          0.4461 
       68000.00          0.0452          0.4506 
       68050.00          0.0767          0.4297 
       68100.00          0.0849          0.4342 
       68150.00          0.0635          0.4501 
       68200.00          0.0659          0.4425 
       68250.00          0.0978          0.4248 
       68300.00          0.0585          0.4418 
       68350.00          0.0831          0.4276 
       68400.00          0.0496          0.4573 
       68450.00          0.1068          0.4398 
       68500.00          0.0930          0.4395 
       68550.00          0.0804          0.4454 
       68600.00          0.0718          0.4512 
       68650.00          0.0745          0.4408 
       68700.00          0.0777          0.4422 
       68750.00          0.0414          0.4517 
       68800.00          0.0534          0.4645 
       68850.00          0.0286          0.4460 
       68900.00          0.0741          0.4294 
       68950.00          0.0732          0.4369 
       69000.00          0.0776          0.4413 
       69050.00          0.1066          0.4331 
       69100.00          0.1016          0.4319 
       69150.00          0.0251          0.4525 
       69200.00          0.0376          0.4419 
       69250.00          0.0753          0.4383 
       69300.00          0.0598          0.4362 
       69350.00          0.0388          0.4634 
       69400.00          0.0574          0.4415 
       69450.00          0.0875          0.4297 
       69500.00          0.0711          0.4573 
       69550.00          0.0803          0.4409 
       69600.00          0.0600          0.4513 
       69650.00          0.0713          0.4483 
       69700.00          0.0859          0.4416 
       69750.00          0.0667          0.4447 
       69800.00          0.0590          0.4428 
       69850.00          0.0819          0.4276 
       69900.00          0.0748          0.4467 
       69950.00          0.0640          0.4501 
       70000.00          0.0525          0.4429 
       70050.00          0.0875          0.4503 
       70100.00          0.0689          0.4485 
       70150.00          0.0568          0.4496 
       70200.00          0.1227          0.4352 
       70250.00          0.0602          0.4366 
       70300.00          0.0560          0.4395 
       70350.00          0.0819          0.4404 
       70400.00          0.0570          0.4479 
       70450.00          0.0739          0.4388 
       70500.00          0.0408          0.4600 
       70550.00          0.0538          0.4423 
       70600.00          0.0443          0.4472 
       70650.00          0.0663          0.4460 
       70700.00          0.0684          0.4389 
       70750.00          0.0561          0.4536 
       70800.00          0.0643          0.4452 
       70850.00          0.0917          0.4300 
       70900.00          0.0738          0.4429 
       70950.00          0.1142          0.4288 
       71000.00          0.0765          0.4344 
       71050.00          0.0377          0.4482 
       71100.00          0.0365          0.4396 
       71150.00          0.0298          0.4600 
       71200.00          0.0632          0.4479 
       71250.00          0.0474          0.4415 
       71300.00          0.0647          0.4436 
       71350.00          0.0943          0.4422 
       71400.00          0.0557          0.4510 
       71450.00          0.0547          0.4399 
       71500.00          0.0690          0.4477 
       71550.00          0.0636          0.4485 
       71600.00          0.0882          0.4535 
       71650.00          0.0512          0.4404 
       71700.00          0.0582          0.4466 
       71750.00          0.0787          0.4467 
       71800.00          0.0641          0.4432 
       71850.00          0.0576          0.4528 
       71900.00          0.0310          0.4568 
       71950.00          0.0745          0.4534 
       72000.00          0.0996          0.4377 
       72050.00          0.0922          0.4321 
       72100.00          0.0427          0.4513 
       72150.00          0.0669          0.4398 
       72200.00          0.0900          0.4395 
       72250.00          0.0821          0.4404 
       72300.00          0.0753          0.4341 
       72350.00          0.0593          0.4477 
       72400.00          0.0690          0.4389 
       72450.00          0.0687          0.4437 
       72500.00          0.0553          0.4459 
       72550.00          0.0670          0.4409 
       72600.00          0.0689          0.4505 
       72650.00          0.0619          0.4379 
       72700.00          0.0362          0.4438 
       72750.00          0.0636          0.4430 
       72800.00          0.0914          0.4383 
       72850.00          0.0503          0.4416 
       72900.00          0.0527          0.4402 
       72950.00          0.0538          0.4422 
       73000.00          0.0678          0.4462 
       73050.00          0.0520          0.4537 
       73100.00          0.0916          0.4432 
       73150.00          0.0695          0.4416 
       73200.00          0.0850          0.4507 
       73250.00          0.0706          0.4383 
       73300.00          0.1101          0.4247 
       73350.00          0.0678          0.4458 
       73400.00          0.0505          0.4393 
       73450.00          0.1146          0.4280 
       73500.00          0.0813          0.4475 
       73550.00          0.0871          0.4445 
       73600.00          0.0800          0.4506 
       73650.00          0.0490          0.4459 
       73700.00          0.0774          0.4417 
       73750.00          0.0734          0.4326 
       73800.00          0.0480          0.4586 
       73850.00          0.0653          0.4491 
       73900.00          0.0619          0.4433 
       73950.00          0.0648          0.4600 
       74000.00          0.0749          0.4449 
       74050.00          0.0610          0.4393 
       74100.00          0.0596          0.4377 
       74150.00          0.0800          0.4424 
       74200.00          0.0727          0.4460 
       74250.00          0.0715          0.4328 
       74300.00          0.0441          0.4416 
       74350.00          0.0502          0.4461 
       74400.00          0.0386          0.4455 
       74450.00          0.0471          0.4475 
       74500.00          0.0691          0.4419 
       74550.00          0.0664          0.4475 
       74600.00          0.0583          0.4390 
       74650.00          0.0515          0.4499 
       74700.00          0.0591          0.4418 
       74750.00          0.0792          0.4384 
       74800.00          0.0877          0.4482 
       74850.00          0.0678          0.4365 
       74900.00          0.0775          0.4376 
       74950.00          0.0478          0.4452 
       75000.00          0.0771          0.4438 
       75050.00          0.0556          0.4407 
       75100.00          0.0599          0.4434 
       75150.00          0.0559          0.4357 
       75200.00          0.0700          0.4382 
       75250.00          0.0876          0.4395 
       75300.00          0.0802          0.4285 
       75350.00          0.0688          0.4489 
       75400.00          0.0866          0.4401 
       75450.00          0.0497          0.4503 
       75500.00          0.0558          0.4349 
       75550.00          0.0689          0.4394 
       75600.00          0.0614          0.4356 
       75650.00          0.0447          0.4504 
       75700.00          0.0360          0.4440 
       75750.00          0.0616          0.4377 
       75800.00          0.0590          0.4417 
       75850.00          0.0716          0.4380 
       75900.00          0.0690          0.4328 
       75950.00          0.0776          0.4496 
       76000.00          0.0701          0.4458 
       76050.00          0.0659          0.4407 
       76100.00          0.0738          0.4336 
       76150.00          0.0713          0.4567 
       76200.00          0.0525          0.4431 
       76250.00          0.1215          0.4308 
       76300.00          0.0977          0.4396 
       76350.00          0.0661          0.4466 
       76400.00          0.0795          0.4439 
       76450.00          0.0628          0.4439 
       76500.00          0.0605          0.4509 
       76550.00          0.0626          0.4513 
       76600.00          0.0604          0.4423 
       76650.00          0.0584          0.4379 
       76700.00          0.0707          0.4411 
       76750.00          0.0451          0.4537 
       76800.00          0.0635          0.4491 
       76850.00          0.0657          0.4500 
       76900.00          0.0987          0.4466 
       76950.00          0.0456          0.4539 
       77000.00          0.0491          0.4457 
       77050.00          0.0458          0.4450 
       77100.00          0.1029          0.4377 
       77150.00          0.1436          0.4497 
       77200.00          0.0995          0.4730 
       77250.00          0.1114          0.4699 
       77300.00          0.1216          0.4619 
       77350.00          0.2032          0.3790 
       77400.00          0.1275          0.4349 
       77450.00          0.1271          0.4320 
       77500.00          0.0624          0.4375 
       77550.00          0.0650          0.4392 
       77600.00          0.0507          0.4571 
       77650.00          0.0441          0.4362 
       77700.00          0.0432          0.4461 
       77750.00          0.1252          0.4184 
       77800.00          0.0565          0.4407 
       77850.00          0.0502          0.4451 
       77900.00          0.0759          0.4289 
       77950.00          0.0839          0.4398 
       78000.00          0.0512          0.4475 
       78050.00          0.0697          0.4446 
       78100.00          0.0789          0.4373 
       78150.00          0.0716          0.4322 
       78200.00          0.0598          0.4469 
       78250.00          0.0916          0.4484 
       78300.00          0.1006          0.4598 
       78350.00          0.0977          0.4362 
       78400.00          0.0789          0.4344 
       78450.00          0.0702          0.4397 
       78500.00          0.0372          0.4359 
       78550.00          0.0559          0.4484 
       78600.00          0.0661          0.4500 
       78650.00          0.0998          0.4408 
       78700.00          0.0599          0.4418 
       78750.00          0.0745          0.4474 
       78800.00          0.0799          0.4445 
       78850.00          0.0660          0.4346 
       78900.00          0.0497          0.4539 
       78950.00          0.0622          0.4549 
       79000.00          0.0639          0.4298 
       79050.00          0.0637          0.4396 
       79100.00          0.0596          0.4434 
       79150.00          0.0494          0.4487 
       79200.00          0.0669          0.4639 
       79250.00          0.0633          0.4370 
       79300.00          0.0701          0.4417 
       79350.00          0.0973          0.4372 
       79400.00          0.1276          0.4335 
       79450.00          0.1380          0.4273 
       79500.00          0.1009          0.4472 
       79550.00          0.1060          0.4417 
       79600.00          0.1057          0.4331 
       79650.00          0.0396          0.4374 
       79700.00          0.0878          0.4235 
       79750.00          0.0867          0.4449 
       79800.00          0.0629          0.4339 
       79850.00          0.1010          0.4390 
       79900.00          0.0281          0.4563 
       79950.00          0.0777          0.4454 
       80000.00          0.0934          0.4390 
       80050.00          0.0570          0.4528 
       80100.00          0.0927          0.4365 
       80150.00          0.0891          0.4460 
       80200.00          0.1232          0.4330 
       80250.00          0.0917          0.4434 
       80300.00          0.1046          0.4263 
       80350.00          0.0857          0.4435 
       80400.00          0.0581          0.4543 
       80450.00          0.0624          0.4420 
       80500.00          0.0730          0.4514 
       80550.00          0.0651          0.4408 
       80600.00          0.0813          0.4447 
       80650.00          0.0486          0.4404 
       80700.00          0.0626          0.4381 
       80750.00          0.0511          0.4503 
       80800.00          0.0864          0.4250 
       80850.00          0.0574          0.4534 
       80900.00          0.0651          0.4553 
       80950.00          0.0410          0.4385 
       81000.00          0.0505          0.4452 
       81050.00          0.0618          0.4369 
       81100.00          0.0788          0.4403 
       81150.00          0.0665          0.4509 
       81200.00          0.0395          0.4465 
       81250.00          0.0622          0.4475 
       81300.00          0.0493          0.4498 
       81350.00          0.0545          0.4335 
       81400.00          0.0780          0.4434 
       81450.00          0.0690          0.4348 
       81500.00          0.0844          0.4320 
       81550.00          0.0376          0.4510 
       81600.00          0.0623          0.4446 
       81650.00          0.0829          0.4393 
       81700.00          0.0744          0.4362 
       81750.00          0.0692          0.4433 
       81800.00          0.0406          0.4427 
       81850.00          0.0407          0.4424 
       81900.00          0.0445          0.4462 
       81950.00          0.1160          0.4349 
       82000.00          0.0590          0.4449 
       82050.00          0.0585          0.4426 
       82100.00          0.0891          0.4432 
       82150.00          0.0770          0.4421 
       82200.00          0.0559          0.4346 
       82250.00          0.0785          0.4407 
       82300.00          0.0295          0.4485 
       82350.00          0.0296          0.4523 
       82400.00          0.0366          0.4494 
       82450.00          0.0500          0.4362 
       82500.00          0.0479          0.4489 
       82550.00          0.0744          0.4519 
       82600.00          0.0768          0.4345 
       82650.00          0.0639          0.4466 
       82700.00          0.0637          0.4311 
       82750.00          0.0670          0.4389 
       82800.00          0.0421          0.4495 
       82850.00          0.1018          0.4384 
       82900.00          0.0785          0.4400 
       82950.00          0.0591          0.4487 
       83000.00          0.0910          0.4428 
       83050.00          0.0647          0.4238 
       83100.00          0.0473          0.4386 
       83150.00          0.0722          0.4357 
       83200.00          0.0764          0.4351 
       83250.00          0.0698          0.4372 
       83300.00          0.0497          0.4538 
       83350.00          0.0895          0.4405 
       83400.00          0.0950          0.4392 
       83450.00          0.0695          0.4476 
       83500.00          0.0573          0.4539 
       83550.00          0.0527          0.4398 
       83600.00          0.0952          0.4388 
       83650.00          0.0667          0.4496 
       83700.00          0.0364          0.4452 
       83750.00          0.0546          0.4385 
       83800.00          0.0784          0.4459 
       83850.00          0.0480          0.4455 
       83900.00          0.0509          0.4497 
       83950.00          0.0646          0.4351 
       84000.00          0.0667          0.4335 
       84050.00          0.0663          0.4412 
       84100.00          0.1026          0.4298 
       84150.00          0.1130          0.4218 
       84200.00          0.0651          0.4398 
       84250.00          0.0645          0.4408 
       84300.00          0.0931          0.4382 
       84350.00          0.0685          0.4269 
       84400.00          0.0778          0.4466 
       84450.00          0.0544          0.4488 
       84500.00          0.0468          0.4425 
       84550.00          0.0644          0.4380 
       84600.00          0.0465          0.4411 
       84650.00          0.0790          0.4371 
       84700.00          0.0588          0.4517 
       84750.00          0.0850          0.4536 
       84800.00          0.0716          0.4432 
       84850.00          0.0933          0.4518 
       84900.00          0.0607          0.4498 
       84950.00          0.0689          0.4435 
       85000.00          0.0704          0.4443 
       85050.00          0.0439          0.4424 
       85100.00          0.0652          0.4489 
       85150.00          0.0466          0.4550 
       85200.00          0.1402          0.4205 
       85250.00          0.1266          0.4403 
       85300.00          0.1402          0.4333 
       85350.00          0.1284          0.4289 
       85400.00          0.1168          0.4434 
       85450.00          0.1590          0.4080 
       85500.00          0.1113          0.4319 
       85550.00          0.0552          0.4558 
       85600.00          0.0642          0.4298 
       85650.00          0.0897          0.4474 
       85700.00          0.0851          0.4359 
       85750.00          0.0839          0.4367 
       85800.00          0.0616          0.4506 
       85850.00          0.1206          0.4322 
       85900.00          0.1387          0.4180 
       85950.00          0.0991          0.4359 
       86000.00          0.0986          0.4383 
       86050.00          0.0689          0.4460 
       86100.00          0.0696          0.4378 
       86150.00          0.0616          0.4397 
       86200.00          0.1177          0.4318 
       86250.00          0.0646          0.4436 
       86300.00          0.0492          0.4383 
       86350.00          0.1283          0.4265 
       86400.00          0.0754          0.4337 
       86450.00          0.0381          0.4415 
       86500.00          0.0545          0.4570 
       86550.00          0.0619          0.4522 
       86600.00          0.0957          0.4407 
       86650.00          0.0799          0.4398 
       86700.00          0.0578          0.4550 
       86750.00          0.0880          0.4619 
       86800.00          0.0624          0.4622 
       86850.00          0.0761          0.4481 
       86900.00          0.0644          0.4451 
       86950.00          0.0347          0.4513 
       87000.00          0.0729          0.4348 
       87050.00          0.0542          0.4361 
       87100.00          0.0985          0.4445 
       87150.00          0.0782          0.4332 
       87200.00          0.0688          0.4591 
       87250.00          0.0568          0.4477 
       87300.00          0.0870          0.4454 
       87350.00          0.0629          0.4440 
       87400.00          0.1003          0.4339 
       87450.00          0.0577          0.4508 
       87500.00          0.0481          0.4491 
       87550.00          0.0483          0.4485 
       87600.00          0.0846          0.4429 
       87650.00          0.0764          0.4420 
       87700.00          0.0354          0.4536 
       87750.00          0.0888          0.4356 
       87800.00          0.0729          0.4334 
       87850.00          0.0783          0.4347 
       87900.00          0.0641          0.4354 
       87950.00          0.0856          0.4371 
       88000.00          0.0679          0.4270 
       88050.00          0.1218          0.4300 
       88100.00          0.0373          0.4494 
       88150.00          0.0409          0.4346 
       88200.00          0.0972          0.4377 
       88250.00          0.0695          0.4532 
       88300.00          0.0558          0.4414 
       88350.00          0.0624          0.4381 
       88400.00          0.0822          0.4312 
       88450.00          0.0471          0.4510 
       88500.00          0.0570          0.4544 
       88550.00          0.0637          0.4432 
       88600.00          0.0712          0.4329 
       88650.00          0.0503          0.4520 
       88700.00          0.0534          0.4336 
       88750.00          0.0494          0.4361 
       88800.00          0.0360          0.4527 
       88850.00          0.0830          0.4425 
       88900.00          0.1075          0.4351 
       88950.00          0.0790          0.4451 
       89000.00          0.0736          0.4352 
       89050.00          0.0672          0.4421 
       89100.00          0.0706          0.4421 
       89150.00          0.0887          0.4369 
       89200.00          0.0504          0.4434 
       89250.00          0.0621          0.4475 
       89300.00          0.0901          0.4368 
       89350.00          0.0632          0.4388 
       89400.00          0.0610          0.4528 
       89450.00          0.0427          0.4479 
       89500.00          0.0608          0.4460 
       89550.00          0.0630          0.4574 
       89600.00          0.0686          0.4339 
       89650.00          0.0574          0.4439 
       89700.00          0.0879          0.4464 
       89750.00          0.0681          0.4383 
       89800.00          0.0839          0.4551 
       89850.00          0.1144          0.4232 
       89900.00          0.0856          0.4463 
       89950.00          0.0264          0.4478 
       90000.00          0.0501          0.4453 
       90050.00          0.0275          0.4452 
       90100.00          0.0454          0.4417 
       90150.00          0.0546          0.4364 
       90200.00          0.0542          0.4436 
       90250.00          0.0330          0.4431 
       90300.00          0.0681          0.4421 
       90350.00          0.0370          0.4403 
       90400.00          0.0615          0.4462 
       90450.00          0.0440          0.4428 
       90500.00          0.0759          0.4315 
       90550.00          0.0771          0.4491 
       90600.00          0.0476          0.4476 
       90650.00          0.1060          0.4440 
       90700.00          0.0446          0.4501 
       90750.00          0.0451          0.4571 
       90800.00          0.0579          0.4510 
       90850.00          0.0918          0.4356 
       90900.00          0.0908          0.4486 
       90950.00          0.0465          0.4404 
       91000.00          0.0580          0.4449 
       91050.00          0.0547          0.4571 
       91100.00          0.0508          0.4516 
       91150.00          0.0819          0.4360 
       91200.00          0.0751          0.4373 
       91250.00          0.0859          0.4501 
       91300.00          0.0629          0.4433 
       91350.00          0.0690          0.4530 
       91400.00          0.0917          0.4327 
       91450.00          0.0786          0.4489 
       91500.00          0.0627          0.4463 
       91550.00          0.0637          0.4436 
       91600.00          0.1168          0.4310 
       91650.00          0.0638          0.4399 
       91700.00          0.0550          0.4502 
       91750.00          0.0551          0.4426 
       91800.00          0.0770          0.4513 
       91850.00          0.0542          0.4413 
       91900.00          0.1043          0.4390 
       91950.00          0.0617          0.4342 
       92000.00          0.0749          0.4508 
       92050.00          0.1186          0.4266 
       92100.00          0.0767          0.4364 
       92150.00          0.0647          0.4447 
       92200.00          0.0823          0.4414 
       92250.00          0.0508          0.4421 
       92300.00          0.0599          0.4391 
       92350.00          0.0587          0.4497 
       92400.00          0.0641          0.4378 
       92450.00          0.0673          0.4320 
       92500.00          0.0808          0.4478 
       92550.00          0.0844          0.4469 
       92600.00          0.0634          0.4371 
       92650.00          0.0677          0.4444 
       92700.00          0.0865          0.4411 
       92750.00          0.0691          0.4371 
       92800.00          0.0356          0.4421 
       92850.00          0.0731          0.4415 
       92900.00          0.0771          0.4420 
       92950.00          0.0583          0.4356 
       93000.00          0.0788          0.4570 
       93050.00          0.0753          0.4435 
       93100.00          0.0842          0.4335 
       93150.00          0.0836          0.4447 
       93200.00          0.0843          0.4373 
       93250.00          0.0774          0.4385 
       93300.00          0.0829          0.4500 
       93350.00          0.0940          0.4420 
       93400.00          0.0848          0.4432 
       93450.00          0.0573          0.4488 
       93500.00          0.0827          0.4431 
       93550.00          0.0816          0.4644 
       93600.00          0.1394          0.4506 
       93650.00          0.1753          0.4247 
       93700.00          0.1937          0.4368 
       93750.00          0.1956          0.4330 
       93800.00          0.2100          0.4132 
       93850.00          0.2075          0.4104 
       93900.00          0.1916          0.4156 
       93950.00          0.1911          0.4211 
       94000.00          0.1750          0.4348 
       94050.00          0.1945          0.4235 
       94100.00          0.1882          0.4212 
       94150.00          0.1865          0.4181 
       94200.00          0.1339          0.4551 
       94250.00          0.1459          0.4341 
       94300.00          0.1489          0.4539 
       94350.00          0.1609          0.4356 
       94400.00          0.1833          0.4320 
       94450.00          0.1833          0.4309 
       94500.00          0.1394          0.4539 
       94550.00          0.1573          0.4384 
       94600.00          0.1659          0.4256 
       94650.00          0.1623          0.4427 
       94700.00          0.1878          0.4322 
       94750.00          0.2018          0.4201 
       94800.00          0.1396          0.4433 
       94850.00          0.1023          0.4527 
       94900.00          0.1533          0.4440 
       94950.00          0.1575          0.4357 
       95000.00          0.1570          0.4259 
       95050.00          0.1772          0.4284 
       95100.00          0.1540          0.4392 
       95150.00          0.1717          0.4396 
       95200.00          0.1578          0.4383 
       95250.00          0.2157          0.4142 
       95300.00          0.1890          0.4214 
       95350.00          0.1638          0.4365 
       95400.00          0.1713          0.4299 
       95450.00          0.1618          0.4271 
       95500.00          0.2513          0.3951 
       95550.00          0.2303          0.3902 
       95600.00          0.2382          0.3847 
       95650.00          0.2217          0.4019 
       95700.00          0.1964          0.4232 
       95750.00          0.1627          0.4447 
       95800.00          0.1765          0.4345 
       95850.00          0.1426          0.4413 
       95900.00          0.1398          0.4438 
       95950.00          0.0942          0.4580 
       96000.00          0.0928          0.4341 
       96050.00          0.0779          0.4505 
       96100.00          0.0522          0.4430 
       96150.00          0.0449          0.4571 
       96200.00          0.0777          0.4512 
       96250.00          0.0596          0.4465 
       96300.00          0.1121          0.4525 
       96350.00          0.0573          0.4388 
       96400.00          0.0763          0.4340 
       96450.00          0.0561          0.4413 
       96500.00          0.0514          0.4442 
       96550.00          0.0578          0.4494 
       96600.00          0.0880          0.4408 
       96650.00          0.1116          0.4384 
       96700.00          0.1148          0.4210 
       96750.00          0.1399          0.4296 
       96800.00          0.0720          0.4361 
       96850.00          0.0814          0.4468 
       96900.00          0.0820          0.4304 
       96950.00          0.0886          0.4327 
       97000.00          0.0543          0.4422 
       97050.00          0.0505          0.4535 
       97100.00          0.0818          0.4493 
       97150.00          0.0483          0.4514 
       97200.00          0.0603          0.4484 
       97250.00          0.0891          0.4485 
       97300.00          0.0714          0.4440 
       97350.00          0.0767          0.4440 
       97400.00          0.0752          0.4416 
       97450.00          0.1050          0.4370 
       97500.00          0.0450          0.4453 
       97550.00          0.0863          0.4574 
       97600.00          0.0604          0.4336 
       97650.00          0.0547          0.4492 
       97700.00          0.0588          0.4453 
       97750.00          0.0510          0.4461 
       97800.00          0.0739          0.4400 
       97850.00          0.0573          0.4467 
       97900.00          0.0856          0.4322 
       97950.00          0.0763          0.4378 
       98000.00          0.0726          0.4381 
       98050.00          0.0451          0.4380 
       98100.00          0.0924          0.4426 
       98150.00          0.0951          0.4438 
       98200.00          0.0956          0.4576 
       98250.00          0.0854          0.4389 
       98300.00          0.0793          0.4390 
       98350.00          0.1058          0.4416 
       98400.00          0.0491          0.4307 
       98450.00          0.0813          0.4370 
       98500.00          0.0651          0.4512 
       98550.00          0.0339          0.4483 
       98600.00          0.0706          0.4505 
       98650.00          0.0740          0.4498 
       98700.00          0.0810          0.4394 
       98750.00          0.1165          0.4279 
       98800.00          0.0555          0.4420 
       98850.00          0.0646          0.4415 
       98900.00          0.0769          0.4345 
       98950.00          0.1123          0.4376 
       99000.00          0.0767          0.4369 
       99050.00          0.0874          0.4424 
       99100.00          0.0444          0.4560 
       99150.00          0.0831          0.4500 
       99200.00          0.0709          0.4427 
       99250.00          0.0673          0.4392 
       99300.00          0.0432          0.4440 
       99350.00          0.0936          0.4303 
       99400.00          0.0866          0.4435 
       99450.00          0.0689          0.4307 
       99500.00          0.1330          0.4149 
       99550.00          0.0969          0.4406 
       99600.00          0.1000          0.4456 
       99650.00          0.0586          0.4417 
       99700.00          0.0565          0.4433 
       99750.00          0.0643          0.4490 
       99800.00          0.0778          0.4419 
       99850.00          0.0618          0.4405 
       99900.00          0.0504          0.4530 
       99950.00          0.0663          0.4408 
      100000.00          0.0776          0.4466 
