@    xaxis  label "t"
@    yaxis  label "RMSD (nm)"
           0.00          0.0000          0.4517 
          50.00          0.1264          0.4651 
         100.00          0.1460          0.4601 
         150.00          0.1932          0.5129 
         200.00          0.2197          0.4656 
         250.00          0.2551          0.4768 
         300.00          0.2258          0.4569 
         350.00          0.2421          0.4741 
         400.00          0.2280          0.4302 
         450.00          0.2128          0.4318 
         500.00          0.2289          0.4527 
         550.00          0.2372          0.4118 
         600.00          0.2660          0.4576 
         650.00          0.2827          0.4079 
         700.00          0.2850          0.4051 
         750.00          0.2363          0.4366 
         800.00          0.2659          0.4164 
         850.00          0.2708          0.4311 
         900.00          0.2282          0.4454 
         950.00          0.2588          0.4263 
        1000.00          0.2606          0.4197 
        1050.00          0.2607          0.4157 
        1100.00          0.2766          0.4078 
        1150.00          0.2639          0.4179 
        1200.00          0.2979          0.3825 
        1250.00          0.2583          0.4189 
        1300.00          0.2934          0.4119 
        1350.00          0.2901          0.3984 
        1400.00          0.3162          0.4146 
        1450.00          0.3107          0.4033 
        1500.00          0.2792          0.4098 
        1550.00          0.2567          0.4335 
        1600.00          0.2601          0.4114 
        1650.00          0.2436          0.4155 
        1700.00          0.2466          0.4311 
        1750.00          0.2835          0.4218 
        1800.00          0.2450          0.4319 
        1850.00          0.2573          0.4148 
        1900.00          0.2522          0.4403 
        1950.00          0.2928          0.4123 
        2000.00          0.3166          0.3878 
        2050.00          0.3087          0.3906 
        2100.00          0.2811          0.4028 
        2150.00          0.2776          0.4421 
        2200.00          0.2781          0.4542 
        2250.00          0.2948          0.3935 
        2300.00          0.3033          0.4657 
        2350.00          0.2417          0.4282 
        2400.00          0.2497          0.4379 
        2450.00          0.2777          0.4460 
        2500.00          0.2843          0.3730 
        2550.00          0.2424          0.4712 
        2600.00          0.2885          0.3967 
        2650.00          0.2676          0.4335 
        2700.00          0.2464          0.4232 
        2750.00          0.2953          0.3838 
        2800.00          0.2636          0.4270 
        2850.00          0.2351          0.4166 
        2900.00          0.2174          0.4444 
        2950.00          0.2642          0.3908 
        3000.00          0.2849          0.3770 
        3050.00          0.2715          0.4005 
        3100.00          0.2417          0.4013 
        3150.00          0.2643          0.3988 
        3200.00          0.2810          0.3893 
        3250.00          0.2818          0.3861 
        3300.00          0.2177          0.4349 
        3350.00          0.2523          0.4150 
        3400.00          0.2591          0.3953 
        3450.00          0.2795          0.3844 
        3500.00          0.2687          0.3857 
        3550.00          0.2433          0.4039 
        3600.00          0.1920          0.4473 
        3650.00          0.2424          0.4071 
        3700.00          0.2533          0.4079 
        3750.00          0.2826          0.3852 
        3800.00          0.2588          0.3978 
        3850.00          0.2660          0.3836 
        3900.00          0.2197          0.4301 
        3950.00          0.2699          0.3801 
        4000.00          0.2722          0.3957 
        4050.00          0.2786          0.3831 
        4100.00          0.2847          0.3808 
        4150.00          0.2425          0.4136 
        4200.00          0.2830          0.3888 
        4250.00          0.2685          0.3938 
        4300.00          0.2403          0.4285 
        4350.00          0.2483          0.4068 
        4400.00          0.2897          0.3709 
        4450.00          0.2901          0.3743 
        4500.00          0.2961          0.3876 
        4550.00          0.2558          0.4199 
        4600.00          0.2470          0.4127 
        4650.00          0.2473          0.4025 
        4700.00          0.2613          0.4084 
        4750.00          0.2606          0.4097 
        4800.00          0.2738          0.3894 
        4850.00          0.2579          0.4111 
        4900.00          0.2748          0.3885 
        4950.00          0.3034          0.3799 
        5000.00          0.2673          0.4050 
        5050.00          0.2794          0.3843 
        5100.00          0.2945          0.3786 
        5150.00          0.2885          0.3769 
        5200.00          0.2622          0.3986 
        5250.00          0.2569          0.4138 
        5300.00          0.2440          0.4041 
        5350.00          0.1897          0.4563 
        5400.00          0.1544          0.4667 
        5450.00          0.1959          0.4529 
        5500.00          0.1931          0.4565 
        5550.00          0.1915          0.4461 
        5600.00          0.1816          0.4372 
        5650.00          0.1682          0.4327 
        5700.00          0.1756          0.4313 
        5750.00          0.2113          0.4185 
        5800.00          0.1365          0.4498 
        5850.00          0.1564          0.4355 
        5900.00          0.2051          0.4154 
        5950.00          0.1831          0.4239 
        6000.00          0.1838          0.4229 
        6050.00          0.1713          0.4289 
        6100.00          0.1777          0.4279 
        6150.00          0.2028          0.4217 
        6200.00          0.2184          0.3907 
        6250.00          0.2711          0.3838 
        6300.00          0.2646          0.3752 
        6350.00          0.2528          0.3920 
        6400.00          0.2163          0.4221 
        6450.00          0.2141          0.4496 
        6500.00          0.2111          0.4341 
        6550.00          0.2509          0.3732 
        6600.00          0.2284          0.4032 
        6650.00          0.2415          0.4081 
        6700.00          0.2829          0.3807 
        6750.00          0.3014          0.3610 
        6800.00          0.3016          0.3624 
        6850.00          0.2650          0.3916 
        6900.00          0.2382          0.4024 
        6950.00          0.2054          0.4379 
        7000.00          0.2164          0.4187 
        7050.00          0.2102          0.4245 
        7100.00          0.2020          0.4276 
        7150.00          0.1976          0.4121 
        7200.00          0.1984          0.4179 
        7250.00          0.2252          0.4124 
        7300.00          0.1922          0.4280 
        7350.00          0.1925          0.4195 
        7400.00          0.1803          0.4239 
        7450.00          0.2222          0.4001 
        7500.00          0.1774          0.4287 
        7550.00          0.2216          0.3956 
        7600.00          0.2200          0.3930 
        7650.00          0.2047          0.4101 
        7700.00          0.1980          0.4176 
        7750.00          0.1794          0.4272 
        7800.00          0.1231          0.4483 
        7850.00          0.1731          0.4252 
        7900.00          0.2047          0.4109 
        7950.00          0.1900          0.4285 
        8000.00          0.1683          0.4388 
        8050.00          0.1658          0.4349 
        8100.00          0.1644          0.4391 
        8150.00          0.1937          0.4229 
        8200.00          0.2045          0.4122 
        8250.00          0.1868          0.4155 
        8300.00          0.1841          0.4298 
        8350.00          0.1997          0.4112 
        8400.00          0.2309          0.4146 
        8450.00          0.2283          0.3877 
        8500.00          0.1995          0.4263 
        8550.00          0.1777          0.4313 
        8600.00          0.1821          0.4125 
        8650.00          0.2421          0.3778 
        8700.00          0.1685          0.4237 
        8750.00          0.1808          0.4278 
        8800.00          0.2103          0.4064 
        8850.00          0.2178          0.4124 
        8900.00          0.1963          0.4142 
        8950.00          0.1717          0.4383 
        9000.00          0.1742          0.4401 
        9050.00          0.1187          0.4588 
        9100.00          0.1500          0.4473 
        9150.00          0.1775          0.4232 
        9200.00          0.1507          0.4404 
        9250.00          0.1228          0.4643 
        9300.00          0.1191          0.4609 
        9350.00          0.1292          0.4603 
        9400.00          0.1551          0.4283 
        9450.00          0.1773          0.4329 
        9500.00          0.1766          0.4275 
        9550.00          0.2251          0.3978 
        9600.00          0.1651          0.4282 
        9650.00          0.1976          0.4070 
        9700.00          0.1748          0.4322 
        9750.00          0.1795          0.4243 
        9800.00          0.1978          0.4229 
        9850.00          0.1840          0.4411 
        9900.00          0.1506          0.4575 
        9950.00          0.2243          0.4062 
       10000.00          0.1902          0.4245 
       10050.00          0.2164          0.4062 
       10100.00          0.1681          0.4211 
       10150.00          0.1815          0.4185 
       10200.00          0.1811          0.4301 
       10250.00          0.1830          0.4290 
       10300.00          0.1865          0.4218 
       10350.00          0.1880          0.4315 
       10400.00          0.2102          0.4030 
       10450.00          0.2024          0.4145 
       10500.00          0.1973          0.4319 
       10550.00          0.2068          0.4024 
       10600.00          0.1663          0.4464 
       10650.00          0.1930          0.4126 
       10700.00          0.2215          0.4114 
       10750.00          0.1909          0.4293 
       10800.00          0.2128          0.4217 
       10850.00          0.1972          0.4211 
       10900.00          0.1466          0.4516 
       10950.00          0.1258          0.4491 
       11000.00          0.1448          0.4563 
       11050.00          0.1220          0.4527 
       11100.00          0.1140          0.4494 
       11150.00          0.0719          0.4573 
       11200.00          0.1001          0.4574 
       11250.00          0.0370          0.4546 
       11300.00          0.0598          0.4320 
       11350.00          0.1071          0.4428 
       11400.00          0.0507          0.4593 
       11450.00          0.0723          0.4266 
       11500.00          0.0648          0.4384 
       11550.00          0.1192          0.4468 
       11600.00          0.1594          0.4434 
       11650.00          0.1838          0.4303 
       11700.00          0.1969          0.4234 
       11750.00          0.1655          0.4280 
       11800.00          0.1995          0.4197 
       11850.00          0.1878          0.4194 
       11900.00          0.2363          0.3893 
       11950.00          0.2049          0.4206 
       12000.00          0.2026          0.4226 
       12050.00          0.1665          0.4335 
       12100.00          0.1410          0.4493 
       12150.00          0.1379          0.4420 
       12200.00          0.1868          0.4236 
       12250.00          0.2186          0.4005 
       12300.00          0.1754          0.4276 
       12350.00          0.1746          0.4330 
       12400.00          0.1877          0.4264 
       12450.00          0.1830          0.4259 
       12500.00          0.1574          0.4394 
       12550.00          0.1917          0.4345 
       12600.00          0.1994          0.4130 
       12650.00          0.1845          0.4231 
       12700.00          0.1691          0.4336 
       12750.00          0.1779          0.4205 
       12800.00          0.1839          0.4268 
       12850.00          0.1453          0.4450 
       12900.00          0.1333          0.4505 
       12950.00          0.1266          0.4566 
       13000.00          0.2287          0.3933 
       13050.00          0.1407          0.4465 
       13100.00          0.1589          0.4359 
       13150.00          0.1736          0.4309 
       13200.00          0.1717          0.4330 
       13250.00          0.1467          0.4496 
       13300.00          0.1458          0.4440 
       13350.00          0.1016          0.4714 
       13400.00          0.1643          0.4368 
       13450.00          0.1520          0.4525 
       13500.00          0.1538          0.4344 
       13550.00          0.1515          0.4404 
       13600.00          0.2096          0.4139 
       13650.00          0.1434          0.4500 
       13700.00          0.1451          0.4514 
       13750.00          0.2121          0.4211 
       13800.00          0.1693          0.4320 
       13850.00          0.1862          0.4251 
       13900.00          0.1637          0.4406 
       13950.00          0.2064          0.4202 
       14000.00          0.2294          0.4072 
       14050.00          0.2219          0.4337 
       14100.00          0.2200          0.4172 
       14150.00          0.2026          0.4487 
       14200.00          0.1851          0.4195 
       14250.00          0.1899          0.4452 
       14300.00          0.2156          0.4267 
       14350.00          0.2082          0.4389 
       14400.00          0.1944          0.4374 
       14450.00          0.2151          0.4317 
       14500.00          0.2288          0.3985 
       14550.00          0.2232          0.3924 
       14600.00          0.2529          0.4017 
       14650.00          0.2544          0.3884 
       14700.00          0.2242          0.4111 
       14750.00          0.1908          0.4177 
       14800.00          0.2315          0.3911 
       14850.00          0.2227          0.4018 
       14900.00          0.2223          0.4255 
       14950.00          0.1826          0.4358 
       15000.00          0.2274          0.4156 
       15050.00          0.2055          0.4232 
       15100.00          0.2051          0.4085 
       15150.00          0.1753          0.4533 
       15200.00          0.2186          0.4109 
       15250.00          0.2252          0.4196 
       15300.00          0.1957          0.4365 
       15350.00          0.2100          0.4215 
       15400.00          0.2073          0.4247 
       15450.00          0.2120          0.4303 
       15500.00          0.2237          0.4387 
       15550.00          0.1971          0.4385 
       15600.00          0.2138          0.4538 
       15650.00          0.2176          0.4187 
       15700.00          0.1901          0.4348 
       15750.00          0.2072          0.4400 
       15800.00          0.2313          0.4333 
       15850.00          0.1865          0.4393 
       15900.00          0.2411          0.4235 
       15950.00          0.1949          0.4423 
       16000.00          0.2252          0.4051 
       16050.00          0.2248          0.4333 
       16100.00          0.2006          0.4343 
       16150.00          0.2206          0.4382 
       16200.00          0.2345          0.4348 
       16250.00          0.2283          0.4339 
       16300.00          0.1659          0.4482 
       16350.00          0.2013          0.4400 
       16400.00          0.2441          0.4213 
       16450.00          0.1820          0.4431 
       16500.00          0.1999          0.4270 
       16550.00          0.2336          0.4243 
       16600.00          0.2348          0.4133 
       16650.00          0.1864          0.4354 
       16700.00          0.2078          0.4388 
       16750.00          0.1979          0.4361 
       16800.00          0.2273          0.4204 
       16850.00          0.2529          0.4349 
       16900.00          0.2287          0.4312 
       16950.00          0.2061          0.4336 
       17000.00          0.2240          0.4288 
       17050.00          0.2338          0.4237 
       17100.00          0.2079          0.4353 
       17150.00          0.1906          0.4520 
       17200.00          0.2044          0.4356 
       17250.00          0.1962          0.4349 
       17300.00          0.2404          0.4118 
       17350.00          0.2132          0.4373 
       17400.00          0.2188          0.4424 
       17450.00          0.1759          0.4660 
       17500.00          0.1880          0.4716 
       17550.00          0.1929          0.4565 
       17600.00          0.2323          0.4808 
       17650.00          0.2562          0.4461 
       17700.00          0.2501          0.4550 
       17750.00          0.2802          0.4533 
       17800.00          0.2170          0.4673 
       17850.00          0.2714          0.4692 
       17900.00          0.2014          0.4441 
       17950.00          0.2322          0.3910 
       18000.00          0.2069          0.3955 
       18050.00          0.1560          0.4453 
       18100.00          0.1763          0.4272 
       18150.00          0.1746          0.4218 
       18200.00          0.1461          0.4417 
       18250.00          0.1820          0.4281 
       18300.00          0.2002          0.4128 
       18350.00          0.1943          0.4210 
       18400.00          0.1844          0.4269 
       18450.00          0.1979          0.4114 
       18500.00          0.1493          0.4496 
       18550.00          0.1874          0.4286 
       18600.00          0.1688          0.4268 
       18650.00          0.1780          0.4280 
       18700.00          0.1650          0.4395 
       18750.00          0.1745          0.4300 
       18800.00          0.1957          0.4270 
       18850.00          0.1620          0.4426 
       18900.00          0.1923          0.4274 
       18950.00          0.2233          0.4096 
       19000.00          0.1735          0.4221 
       19050.00          0.2280          0.4061 
       19100.00          0.1813          0.4351 
       19150.00          0.1962          0.4204 
       19200.00          0.2087          0.4150 
       19250.00          0.1870          0.4246 
       19300.00          0.2083          0.4147 
       19350.00          0.1731          0.4276 
       19400.00          0.1510          0.4441 
       19450.00          0.1216          0.4588 
       19500.00          0.0493          0.4517 
       19550.00          0.1069          0.4199 
       19600.00          0.0929          0.4492 
       19650.00          0.0846          0.4351 
       19700.00          0.0690          0.4448 
       19750.00          0.1008          0.4229 
       19800.00          0.0595          0.4375 
       19850.00          0.0812          0.4721 
       19900.00          0.0908          0.4867 
       19950.00          0.1549          0.4316 
       20000.00          0.1834          0.4502 
       20050.00          0.1300          0.4835 
       20100.00          0.2174          0.4299 
       20150.00          0.2558          0.4265 
       20200.00          0.2168          0.4398 
       20250.00          0.2628          0.3760 
       20300.00          0.2156          0.4120 
       20350.00          0.2779          0.3766 
       20400.00          0.2785          0.3986 
       20450.00          0.2143          0.4704 
       20500.00          0.1945          0.4608 
       20550.00          0.2028          0.4193 
       20600.00          0.2334          0.4085 
       20650.00          0.2605          0.3978 
       20700.00          0.2698          0.4083 
       20750.00          0.2780          0.3908 
       20800.00          0.2456          0.4363 
       20850.00          0.2704          0.3971 
       20900.00          0.2758          0.4030 
       20950.00          0.2645          0.4105 
       21000.00          0.2685          0.3725 
       21050.00          0.3366          0.3310 
       21100.00          0.2228          0.3814 
       21150.00          0.2342          0.4235 
       21200.00          0.1351          0.4551 
       21250.00          0.1936          0.4080 
       21300.00          0.2166          0.3981 
       21350.00          0.2095          0.4025 
       21400.00          0.1749          0.4302 
       21450.00          0.1626          0.4218 
       21500.00          0.0806          0.4661 
       21550.00          0.0574          0.4566 
       21600.00          0.0865          0.4440 
       21650.00          0.0279          0.4617 
       21700.00          0.0541          0.4364 
       21750.00          0.0552          0.4471 
       21800.00          0.0763          0.4476 
       21850.00          0.0563          0.4358 
       21900.00          0.0595          0.4496 
       21950.00          0.0819          0.4320 
       22000.00          0.0675          0.4488 
       22050.00          0.0863          0.4466 
       22100.00          0.0604          0.4459 
       22150.00          0.0760          0.4382 
       22200.00          0.0687          0.4407 
       22250.00          0.0491          0.4405 
       22300.00          0.0804          0.4459 
       22350.00          0.0384          0.4348 
       22400.00          0.0698          0.4467 
       22450.00          0.0471          0.4400 
       22500.00          0.0654          0.4320 
       22550.00          0.1230          0.4214 
       22600.00          0.0656          0.4427 
       22650.00          0.0838          0.4519 
       22700.00          0.0477          0.4502 
       22750.00          0.0392          0.4539 
       22800.00          0.0277          0.4438 
       22850.00          0.0368          0.4461 
       22900.00          0.0606          0.4582 
       22950.00          0.0575          0.4421 
       23000.00          0.0752          0.4383 
       23050.00          0.0655          0.4408 
       23100.00          0.1194          0.4259 
       23150.00          0.1040          0.4360 
       23200.00          0.0571          0.4505 
       23250.00          0.0733          0.4412 
       23300.00          0.0996          0.4429 
       23350.00          0.0570          0.4492 
       23400.00          0.0859          0.4457 
       23450.00          0.0630          0.4442 
       23500.00          0.1041          0.4349 
       23550.00          0.0296          0.4468 
       23600.00          0.0345          0.4389 
       23650.00          0.0854          0.4393 
       23700.00          0.1305          0.4381 
       23750.00          0.1110          0.4495 
       23800.00          0.1223          0.4452 
       23850.00          0.1247          0.4489 
       23900.00          0.1339          0.4623 
       23950.00          0.1574          0.4379 
       24000.00          0.1829          0.4155 
       24050.00          0.1473          0.4497 
       24100.00          0.1467          0.4533 
       24150.00          0.1481          0.4264 
       24200.00          0.1442          0.4373 
       24250.00          0.1078          0.4541 
       24300.00          0.0990          0.4514 
       24350.00          0.1257          0.4506 
       24400.00          0.1696          0.4428 
       24450.00          0.1550          0.4345 
       24500.00          0.2013          0.4157 
       24550.00          0.1285          0.4414 
       24600.00          0.0986          0.4557 
       24650.00          0.1150          0.4715 
       24700.00          0.0941          0.4615 
       24750.00          0.0801          0.4603 
       24800.00          0.0988          0.4735 
       24850.00          0.1246          0.4439 
       24900.00          0.0647          0.4591 
       24950.00          0.1135          0.4699 
       25000.00          0.1489          0.4543 
       25050.00          0.1031          0.4612 
       25100.00          0.1339          0.4515 
       25150.00          0.0697          0.4599 
       25200.00          0.1156          0.4647 
       25250.00          0.1054          0.4631 
       25300.00          0.0968          0.4629 
       25350.00          0.1588          0.4157 
       25400.00          0.1116          0.4598 
       25450.00          0.1287          0.4538 
       25500.00          0.1313          0.4510 
       25550.00          0.1172          0.4725 
       25600.00          0.0951          0.4721 
       25650.00          0.1071          0.4691 
       25700.00          0.0631          0.4527 
       25750.00          0.0826          0.4627 
       25800.00          0.1432          0.4277 
       25850.00          0.1429          0.4181 
       25900.00          0.1229          0.4236 
       25950.00          0.1589          0.4147 
       26000.00          0.1330          0.4268 
       26050.00          0.1651          0.4302 
       26100.00          0.1347          0.4204 
       26150.00          0.1192          0.4414 
       26200.00          0.1007          0.4566 
       26250.00          0.1265          0.4600 
       26300.00          0.1098          0.4574 
       26350.00          0.1213          0.4441 
       26400.00          0.1083          0.4607 
       26450.00          0.1434          0.4498 
       26500.00          0.1420          0.4279 
       26550.00          0.1231          0.4788 
       26600.00          0.0851          0.4723 
       26650.00          0.1078          0.4754 
       26700.00          0.1526          0.4452 
       26750.00          0.1473          0.4407 
       26800.00          0.1474          0.4387 
       26850.00          0.1443          0.4409 
       26900.00          0.1274          0.4400 
       26950.00          0.0872          0.4458 
       27000.00          0.0551          0.4457 
       27050.00          0.0811          0.4372 
       27100.00          0.0588          0.4494 
       27150.00          0.0715          0.4442 
       27200.00          0.0660          0.4442 
       27250.00          0.0779          0.4436 
       27300.00          0.0689          0.4536 
       27350.00          0.0590          0.4577 
       27400.00          0.1042          0.4318 
       27450.00          0.0553          0.4456 
       27500.00          0.0636          0.4486 
       27550.00          0.0578          0.4444 
       27600.00          0.0560          0.4523 
       27650.00          0.0357          0.4501 
       27700.00          0.0239          0.4547 
       27750.00          0.0587          0.4429 
       27800.00          0.0677          0.4533 
       27850.00          0.0672          0.4405 
       27900.00          0.1117          0.4345 
       27950.00          0.0731          0.4402 
       28000.00          0.0724          0.4449 
       28050.00          0.0883          0.4442 
       28100.00          0.1339          0.4263 
       28150.00          0.0562          0.4467 
       28200.00          0.0611          0.4370 
       28250.00          0.0881          0.4499 
       28300.00          0.0734          0.4361 
       28350.00          0.0559          0.4432 
       28400.00          0.0483          0.4458 
       28450.00          0.0657          0.4418 
       28500.00          0.0854          0.4344 
       28550.00          0.0819          0.4440 
       28600.00          0.0683          0.4335 
       28650.00          0.0695          0.4341 
       28700.00          0.0888          0.4451 
       28750.00          0.0665          0.4344 
       28800.00          0.0830          0.4466 
       28850.00          0.0397          0.4578 
       28900.00          0.0867          0.4495 
       28950.00          0.1140          0.4248 
       29000.00          0.0723          0.4499 
       29050.00          0.0644          0.4414 
       29100.00          0.1078          0.4538 
       29150.00          0.1171          0.4363 
       29200.00          0.0501          0.4573 
       29250.00          0.0773          0.4559 
       29300.00          0.0707          0.4446 
       29350.00          0.1007          0.4465 
       29400.00          0.0838          0.4432 
       29450.00          0.0639          0.4461 
       29500.00          0.0519          0.4448 
       29550.00          0.1026          0.4328 
       29600.00          0.0682          0.4349 
       29650.00          0.0737          0.4260 
       29700.00          0.0701          0.4382 
       29750.00          0.0728          0.4354 
       29800.00          0.0477          0.4560 
       29850.00          0.0634          0.4562 
       29900.00          0.0674          0.4325 
       29950.00          0.0375          0.4596 
       30000.00          0.0649          0.4459 
       30050.00          0.0608          0.4373 
       30100.00          0.0474          0.4391 
       30150.00          0.0898          0.4336 
       30200.00          0.0722          0.4423 
       30250.00          0.0857          0.4342 
       30300.00          0.0609          0.4392 
       30350.00          0.0472          0.4480 
       30400.00          0.0704          0.4419 
       30450.00          0.0870          0.4411 
       30500.00          0.0876          0.4381 
       30550.00          0.0692          0.4413 
       30600.00          0.0466          0.4477 
       30650.00          0.0547          0.4434 
       30700.00          0.0636          0.4402 
       30750.00          0.0499          0.4444 
       30800.00          0.0716          0.4495 
       30850.00          0.0627          0.4414 
       30900.00          0.0734          0.4370 
       30950.00          0.0386          0.4395 
       31000.00          0.0657          0.4452 
       31050.00          0.0346          0.4415 
       31100.00          0.0700          0.4371 
       31150.00          0.0861          0.4539 
       31200.00          0.1447          0.4191 
       31250.00          0.1188          0.4304 
       31300.00          0.0983          0.4414 
       31350.00          0.0741          0.4345 
       31400.00          0.0817          0.4329 
       31450.00          0.0647          0.4500 
       31500.00          0.0654          0.4368 
       31550.00          0.0709          0.4566 
       31600.00          0.1095          0.4396 
       31650.00          0.2200          0.4095 
       31700.00          0.1877          0.4255 
       31750.00          0.1348          0.4463 
       31800.00          0.1249          0.4532 
       31850.00          0.1384          0.4436 
       31900.00          0.1532          0.4340 
       31950.00          0.1134          0.4327 
       32000.00          0.0226          0.4481 
       32050.00          0.0328          0.4476 
       32100.00          0.0598          0.4557 
       32150.00          0.0536          0.4585 
       32200.00          0.0613          0.4279 
       32250.00          0.0681          0.4393 
       32300.00          0.0914          0.4270 
       32350.00          0.0492          0.4425 
       32400.00          0.0650          0.4390 
       32450.00          0.0765          0.4465 
       32500.00          0.0633          0.4578 
       32550.00          0.0857          0.4401 
       32600.00          0.0669          0.4512 
       32650.00          0.0552          0.4373 
       32700.00          0.0931          0.4400 
       32750.00          0.0767          0.4397 
       32800.00          0.0686          0.4475 
       32850.00          0.0552          0.4476 
       32900.00          0.0673          0.4448 
       32950.00          0.0594          0.4493 
       33000.00          0.0546          0.4480 
       33050.00          0.0789          0.4407 
       33100.00          0.1390          0.4061 
       33150.00          0.0693          0.4357 
       33200.00          0.0845          0.4431 
       33250.00          0.0694          0.4303 
       33300.00          0.0571          0.4526 
       33350.00          0.0595          0.4449 
       33400.00          0.0835          0.4447 
       33450.00          0.0622          0.4403 
       33500.00          0.0773          0.4461 
       33550.00          0.0543          0.4424 
       33600.00          0.0248          0.4553 
       33650.00          0.0594          0.4547 
       33700.00          0.0682          0.4386 
       33750.00          0.0844          0.4378 
       33800.00          0.0718          0.4482 
       33850.00          0.1015          0.4374 
       33900.00          0.0721          0.4481 
       33950.00          0.0808          0.4373 
       34000.00          0.0897          0.4368 
       34050.00          0.0600          0.4385 
       34100.00          0.0682          0.4426 
       34150.00          0.0769          0.4456 
       34200.00          0.0600          0.4284 
       34250.00          0.0429          0.4471 
       34300.00          0.0608          0.4393 
       34350.00          0.0476          0.4494 
       34400.00          0.0323          0.4523 
       34450.00          0.0746          0.4501 
       34500.00          0.0453          0.4526 
       34550.00          0.0925          0.4422 
       34600.00          0.0888          0.4353 
       34650.00          0.0784          0.4485 
       34700.00          0.0750          0.4441 
       34750.00          0.0851          0.4455 
       34800.00          0.1004          0.4358 
       34850.00          0.0677          0.4525 
       34900.00          0.1307          0.4198 
       34950.00          0.0872          0.4509 
       35000.00          0.0810          0.4302 
       35050.00          0.1408          0.4253 
       35100.00          0.1282          0.4262 
       35150.00          0.0765          0.4450 
       35200.00          0.0370          0.4458 
       35250.00          0.0372          0.4525 
       35300.00          0.0697          0.4419 
       35350.00          0.0654          0.4462 
       35400.00          0.0878          0.4463 
       35450.00          0.1134          0.4330 
       35500.00          0.0700          0.4263 
       35550.00          0.1148          0.4251 
       35600.00          0.1057          0.4409 
       35650.00          0.0679          0.4531 
       35700.00          0.0517          0.4503 
       35750.00          0.0390          0.4451 
       35800.00          0.0361          0.4424 
       35850.00          0.0969          0.4364 
       35900.00          0.1443          0.4459 
       35950.00          0.1671          0.4363 
       36000.00          0.1368          0.4598 
       36050.00          0.1143          0.4600 
       36100.00          0.1082          0.4686 
       36150.00          0.0790          0.4532 
       36200.00          0.0680          0.4434 
       36250.00          0.1287          0.4176 
       36300.00          0.1334          0.4116 
       36350.00          0.1660          0.4075 
       36400.00          0.1660          0.4503 
       36450.00          0.1321          0.4019 
       36500.00          0.1836          0.3872 
       36550.00          0.1714          0.4181 
       36600.00          0.1578          0.4033 
       36650.00          0.1742          0.4189 
       36700.00          0.1434          0.4179 
       36750.00          0.1907          0.4169 
       36800.00          0.1689          0.4126 
       36850.00          0.1753          0.4061 
       36900.00          0.1450          0.4232 
       36950.00          0.1735          0.4343 
       37000.00          0.1562          0.4251 
       37050.00          0.2084          0.3935 
       37100.00          0.2006          0.3930 
       37150.00          0.1532          0.4314 
       37200.00          0.1303          0.4226 
       37250.00          0.2165          0.3868 
       37300.00          0.1925          0.4101 
       37350.00          0.1879          0.4105 
       37400.00          0.1826          0.4022 
       37450.00          0.1752          0.3961 
       37500.00          0.1865          0.3925 
       37550.00          0.1550          0.4041 
       37600.00          0.1949          0.4025 
       37650.00          0.1891          0.4038 
       37700.00          0.1982          0.3792 
       37750.00          0.1461          0.4095 
       37800.00          0.1918          0.3967 
       37850.00          0.1588          0.4098 
       37900.00          0.1406          0.4113 
       37950.00          0.1588          0.4145 
       38000.00          0.1710          0.4216 
       38050.00          0.1686          0.4049 
       38100.00          0.1465          0.4052 
       38150.00          0.1705          0.4058 
       38200.00          0.1659          0.4020 
       38250.00          0.2179          0.3905 
       38300.00          0.1680          0.4142 
       38350.00          0.1479          0.4306 
       38400.00          0.1418          0.4180 
       38450.00          0.1426          0.4111 
       38500.00          0.1615          0.4152 
       38550.00          0.1612          0.4187 
       38600.00          0.1585          0.4045 
       38650.00          0.1930          0.3904 
       38700.00          0.1720          0.4038 
       38750.00          0.1677          0.3978 
       38800.00          0.1291          0.4113 
       38850.00          0.1943          0.4057 
       38900.00          0.1323          0.4151 
       38950.00          0.1682          0.4184 
       39000.00          0.1488          0.4273 
       39050.00          0.1590          0.4162 
       39100.00          0.1474          0.4178 
       39150.00          0.1904          0.4262 
       39200.00          0.1430          0.4213 
       39250.00          0.1202          0.4187 
       39300.00          0.2043          0.3819 
       39350.00          0.1395          0.4186 
       39400.00          0.1662          0.4084 
       39450.00          0.2036          0.3927 
       39500.00          0.1740          0.4052 
       39550.00          0.1541          0.4087 
       39600.00          0.1978          0.4129 
       39650.00          0.1851          0.3984 
       39700.00          0.1837          0.4119 
       39750.00          0.1365          0.4480 
       39800.00          0.1094          0.4471 
       39850.00          0.0635          0.4466 
       39900.00          0.0588          0.4470 
       39950.00          0.0722          0.4297 
       40000.00          0.0346          0.4488 
       40050.00          0.0619          0.4492 
       40100.00          0.0617          0.4522 
       40150.00          0.0627          0.4429 
       40200.00          0.0861          0.4381 
       40250.00          0.0818          0.4515 
       40300.00          0.0822          0.4471 
       40350.00          0.0575          0.4428 
       40400.00          0.0729          0.4422 
       40450.00          0.0803          0.4443 
       40500.00          0.0644          0.4525 
       40550.00          0.0529          0.4417 
       40600.00          0.0803          0.4567 
       40650.00          0.0488          0.4484 
       40700.00          0.0712          0.4400 
       40750.00          0.0442          0.4554 
       40800.00          0.0511          0.4497 
       40850.00          0.0427          0.4516 
       40900.00          0.0638          0.4314 
       40950.00          0.0634          0.4377 
       41000.00          0.0375          0.4409 
       41050.00          0.0556          0.4504 
       41100.00          0.0819          0.4394 
       41150.00          0.0669          0.4451 
       41200.00          0.0512          0.4343 
       41250.00          0.0787          0.4485 
       41300.00          0.0569          0.4416 
       41350.00          0.0856          0.4234 
       41400.00          0.0659          0.4514 
       41450.00          0.0837          0.4449 
       41500.00          0.0582          0.4381 
       41550.00          0.0641          0.4431 
       41600.00          0.0760          0.4404 
       41650.00          0.0771          0.4460 
       41700.00          0.0539          0.4502 
       41750.00          0.0751          0.4416 
       41800.00          0.0656          0.4364 
       41850.00          0.0750          0.4443 
       41900.00          0.0559          0.4469 
       41950.00          0.0541          0.4485 
       42000.00          0.0746          0.4520 
       42050.00          0.1003          0.4304 
       42100.00          0.0550          0.4317 
       42150.00          0.0490          0.4377 
       42200.00          0.0916          0.4457 
       42250.00          0.0802          0.4513 
       42300.00          0.0849          0.4447 
       42350.00          0.0691          0.4426 
       42400.00          0.0846          0.4454 
       42450.00          0.0558          0.4422 
       42500.00          0.0486          0.4509 
       42550.00          0.0344          0.4426 
       42600.00          0.0795          0.4424 
       42650.00          0.0620          0.4471 
       42700.00          0.0653          0.4383 
       42750.00          0.0939          0.4245 
       42800.00          0.1312          0.4292 
       42850.00          0.1302          0.4291 
       42900.00          0.0970          0.4402 
       42950.00          0.0710          0.4312 
       43000.00          0.0815          0.4498 
       43050.00          0.0671          0.4439 
       43100.00          0.0734          0.4507 
       43150.00          0.0666          0.4569 
       43200.00          0.0609          0.4398 
       43250.00          0.0649          0.4442 
       43300.00          0.0417          0.4482 
       43350.00          0.0452          0.4467 
       43400.00          0.0365          0.4481 
       43450.00          0.0771          0.4453 
       43500.00          0.0590          0.4421 
       43550.00          0.0537          0.4565 
       43600.00          0.0586          0.4484 
       43650.00          0.0667          0.4534 
       43700.00          0.0676          0.4313 
       43750.00          0.0643          0.4390 
       43800.00          0.0825          0.4437 
       43850.00          0.0872          0.4410 
       43900.00          0.0809          0.4341 
       43950.00          0.0864          0.4377 
       44000.00          0.0578          0.4491 
       44050.00          0.0502          0.4425 
       44100.00          0.0639          0.4310 
       44150.00          0.0493          0.4508 
       44200.00          0.0539          0.4429 
       44250.00          0.0700          0.4380 
       44300.00          0.0686          0.4407 
       44350.00          0.0770          0.4346 
       44400.00          0.0721          0.4504 
       44450.00          0.1025          0.4340 
       44500.00          0.0746          0.4430 
       44550.00          0.0560          0.4434 
       44600.00          0.0613          0.4507 
       44650.00          0.0645          0.4336 
       44700.00          0.0820          0.4386 
       44750.00          0.0709          0.4392 
       44800.00          0.0706          0.4451 
       44850.00          0.0624          0.4432 
       44900.00          0.0637          0.4476 
       44950.00          0.0549          0.4498 
       45000.00          0.0552          0.4435 
       45050.00          0.0790          0.4529 
       45100.00          0.0650          0.4347 
       45150.00          0.0509          0.4410 
       45200.00          0.1232          0.4350 
       45250.00          0.1053          0.4295 
       45300.00          0.0624          0.4433 
       45350.00          0.0746          0.4516 
       45400.00          0.0644          0.4510 
       45450.00          0.0732          0.4456 
       45500.00          0.0822          0.4437 
       45550.00          0.0802          0.4423 
       45600.00          0.0842          0.4562 
       45650.00          0.1162          0.4448 
       45700.00          0.1063          0.4233 
       45750.00          0.0960          0.4403 
       45800.00          0.0737          0.4417 
       45850.00          0.0767          0.4454 
       45900.00          0.0573          0.4527 
       45950.00          0.0641          0.4249 
       46000.00          0.0598          0.4384 
       46050.00          0.0655          0.4494 
       46100.00          0.0721          0.4358 
       46150.00          0.0719          0.4391 
       46200.00          0.0616          0.4417 
       46250.00          0.0239          0.4456 
       46300.00          0.0351          0.4445 
       46350.00          0.0845          0.4369 
       46400.00          0.0568          0.4345 
       46450.00          0.1151          0.4463 
       46500.00          0.0222          0.4458 
       46550.00          0.1177          0.4271 
       46600.00          0.0529          0.4426 
       46650.00          0.0863          0.4410 
       46700.00          0.0580          0.4346 
       46750.00          0.0728          0.4467 
       46800.00          0.0606          0.4581 
       46850.00          0.1020          0.4358 
       46900.00          0.0396          0.4461 
       46950.00          0.0399          0.4566 
       47000.00          0.0524          0.4456 
       47050.00          0.0692          0.4452 
       47100.00          0.0716          0.4459 
       47150.00          0.0657          0.4452 
       47200.00          0.0747          0.4431 
       47250.00          0.0861          0.4379 
       47300.00          0.1001          0.4422 
       47350.00          0.0973          0.4294 
       47400.00          0.0661          0.4509 
       47450.00          0.0699          0.4416 
       47500.00          0.0809          0.4382 
       47550.00          0.0624          0.4460 
       47600.00          0.0526          0.4505 
       47650.00          0.0581          0.4395 
       47700.00          0.0697          0.4388 
       47750.00          0.0816          0.4547 
       47800.00          0.0577          0.4499 
       47850.00          0.0652          0.4564 
       47900.00          0.0569          0.4536 
       47950.00          0.1019          0.4389 
       48000.00          0.1131          0.4196 
       48050.00          0.1138          0.4279 
       48100.00          0.1084          0.4335 
       48150.00          0.0670          0.4387 
       48200.00          0.1015          0.4339 
       48250.00          0.0617          0.4345 
       48300.00          0.0705          0.4517 
       48350.00          0.0714          0.4467 
       48400.00          0.0554          0.4487 
       48450.00          0.0601          0.4479 
       48500.00          0.0923          0.4368 
       48550.00          0.0413          0.4516 
       48600.00          0.0405          0.4521 
       48650.00          0.0516          0.4473 
       48700.00          0.0945          0.4416 
       48750.00          0.0690          0.4333 
       48800.00          0.0314          0.4429 
       48850.00          0.0378          0.4359 
       48900.00          0.0382          0.4552 
       48950.00          0.0379          0.4516 
       49000.00          0.0750          0.4301 
       49050.00          0.1142          0.4388 
       49100.00          0.0749          0.4281 
       49150.00          0.0382          0.4477 
       49200.00          0.0677          0.4323 
       49250.00          0.0526          0.4538 
       49300.00          0.0626          0.4487 
       49350.00          0.0697          0.4471 
       49400.00          0.0815          0.4439 
       49450.00          0.0640          0.4450 
       49500.00          0.0558          0.4374 
       49550.00          0.0526          0.4513 
       49600.00          0.0995          0.4323 
       49650.00          0.0486          0.4391 
       49700.00          0.0614          0.4598 
       49750.00          0.0334          0.4560 
       49800.00          0.0731          0.4525 
       49850.00          0.0820          0.4340 
       49900.00          0.1109          0.4379 
       49950.00          0.0635          0.4427 
       50000.00          0.0789          0.4359 
       50050.00          0.0976          0.4402 
       50100.00          0.1183          0.4251 
       50150.00          0.0850          0.4283 
       50200.00          0.0564          0.4376 
       50250.00          0.0640          0.4482 
       50300.00          0.0489          0.4515 
       50350.00          0.0321          0.4554 
       50400.00          0.0992          0.4297 
       50450.00          0.0674          0.4374 
       50500.00          0.1215          0.4188 
       50550.00          0.1245          0.4315 
       50600.00          0.0764          0.4401 
       50650.00          0.0596          0.4516 
       50700.00          0.0715          0.4358 
       50750.00          0.0600          0.4490 
       50800.00          0.0696          0.4443 
       50850.00          0.0579          0.4453 
       50900.00          0.0616          0.4311 
       50950.00          0.0948          0.4392 
       51000.00          0.0694          0.4473 
       51050.00          0.0826          0.4410 
       51100.00          0.0649          0.4418 
       51150.00          0.1154          0.4284 
       51200.00          0.1374          0.4223 
       51250.00          0.0618          0.4468 
       51300.00          0.0861          0.4338 
       51350.00          0.1098          0.4318 
       51400.00          0.0565          0.4407 
       51450.00          0.0631          0.4444 
       51500.00          0.0490          0.4467 
       51550.00          0.0647          0.4469 
       51600.00          0.1221          0.4241 
       51650.00          0.0678          0.4333 
       51700.00          0.0929          0.4315 
       51750.00          0.1170          0.4601 
       51800.00          0.1401          0.4525 
       51850.00          0.2196          0.4099 
       51900.00          0.2331          0.4462 
       51950.00          0.2421          0.4387 
       52000.00          0.2335          0.4406 
       52050.00          0.1924          0.4396 
       52100.00          0.2306          0.3925 
       52150.00          0.2472          0.4083 
       52200.00          0.2436          0.4251 
       52250.00          0.2296          0.4398 
       52300.00          0.1952          0.4310 
       52350.00          0.1742          0.4504 
       52400.00          0.1418          0.4586 
       52450.00          0.1941          0.4184 
       52500.00          0.2240          0.4250 
       52550.00          0.2621          0.3932 
       52600.00          0.2602          0.4170 
       52650.00          0.2309          0.4265 
       52700.00          0.2092          0.4476 
       52750.00          0.1836          0.4440 
       52800.00          0.2249          0.4582 
       52850.00          0.2125          0.4452 
       52900.00          0.2555          0.4297 
       52950.00          0.2631          0.4537 
       53000.00          0.2931          0.4262 
       53050.00          0.3032          0.4141 
       53100.00          0.3469          0.4190 
       53150.00          0.3302          0.4116 
       53200.00          0.3089          0.4272 
       53250.00          0.2998          0.3862 
       53300.00          0.2900          0.4280 
       53350.00          0.3093          0.3979 
       53400.00          0.3223          0.3776 
       53450.00          0.2614          0.3658 
       53500.00          0.2393          0.3562 
       53550.00          0.2213          0.3778 
       53600.00          0.2196          0.3822 
       53650.00          0.2375          0.3738 
       53700.00          0.2127          0.3962 
       53750.00          0.2410          0.4186 
       53800.00          0.2065          0.4366 
       53850.00          0.2311          0.4365 
       53900.00          0.1753          0.4478 
       53950.00          0.1651          0.4588 
       54000.00          0.1889          0.4482 
       54050.00          0.1764          0.4247 
       54100.00          0.2090          0.4088 
       54150.00          0.1908          0.4153 
       54200.00          0.2245          0.3850 
       54250.00          0.2117          0.4370 
       54300.00          0.2455          0.4416 
       54350.00          0.2730          0.4400 
       54400.00          0.2111          0.4326 
       54450.00          0.2239          0.3820 
       54500.00          0.2404          0.4061 
       54550.00          0.2813          0.3580 
       54600.00          0.2932          0.3332 
       54650.00          0.3279          0.3469 
       54700.00          0.3136          0.3853 
       54750.00          0.3132          0.4088 
       54800.00          0.2698          0.4510 
       54850.00          0.2403          0.4588 
       54900.00          0.2560          0.4467 
       54950.00          0.2568          0.4544 
       55000.00          0.2586          0.4355 
       55050.00          0.3025          0.3688 
       55100.00          0.2456          0.3666 
       55150.00          0.3051          0.3859 
       55200.00          0.2455          0.3851 
       55250.00          0.3181          0.3613 
       55300.00          0.3006          0.3634 
       55350.00          0.3754          0.4217 
       55400.00          0.3861          0.3829 
       55450.00          0.4194          0.3781 
       55500.00          0.3892          0.4129 
       55550.00          0.4147          0.4736 
       55600.00          0.3447          0.5008 
       55650.00          0.3859          0.5364 
       55700.00          0.4039          0.5503 
       55750.00          0.4044          0.5704 
       55800.00          0.4047          0.5804 
       55850.00          0.4022          0.6092 
       55900.00          0.3826          0.5435 
       55950.00          0.3504          0.5044 
       56000.00          0.2971          0.4843 
       56050.00          0.3711          0.5321 
       56100.00          0.4025          0.5043 
       56150.00          0.3507          0.5740 
       56200.00          0.4554          0.6903 
       56250.00          0.4413          0.6534 
       56300.00          0.4896          0.6929 
       56350.00          0.5052          0.6974 
       56400.00          0.4729          0.6214 
       56450.00          0.5233          0.7278 
       56500.00          0.5330          0.6879 
       56550.00          0.4740          0.6388 
       56600.00          0.5177          0.6992 
       56650.00          0.4540          0.5747 
       56700.00          0.4515          0.6116 
       56750.00          0.4613          0.5775 
       56800.00          0.4267          0.5295 
       56850.00          0.4169          0.4438 
       56900.00          0.4049          0.4056 
       56950.00          0.4447          0.4157 
       57000.00          0.4476          0.4563 
       57050.00          0.4027          0.4034 
       57100.00          0.4304          0.4641 
       57150.00          0.3802          0.4487 
       57200.00          0.3280          0.4191 
       57250.00          0.2519          0.4906 
       57300.00          0.3436          0.5003 
       57350.00          0.3014          0.4845 
       57400.00          0.3423          0.5290 
       57450.00          0.3707          0.5276 
       57500.00          0.3563          0.5389 
       57550.00          0.3572          0.5199 
       57600.00          0.3167          0.4831 
       57650.00          0.3558          0.4515 
       57700.00          0.3551          0.4551 
       57750.00          0.3788          0.4217 
       57800.00          0.3645          0.4587 
       57850.00          0.3865          0.5112 
       57900.00          0.3583          0.4404 
       57950.00          0.3484          0.4474 
       58000.00          0.3434          0.4178 
       58050.00          0.3621          0.4002 
       58100.00          0.3986          0.4219 
       58150.00          0.4193          0.4106 
       58200.00          0.4031          0.4704 
       58250.00          0.4188          0.4779 
       58300.00          0.3975          0.4132 
       58350.00          0.4330          0.5180 
       58400.00          0.4297          0.4374 
       58450.00          0.4226          0.4220 
       58500.00          0.4038          0.4088 
       58550.00          0.3548          0.3423 
       58600.00          0.4164          0.3616 
       58650.00          0.3784          0.3876 
       58700.00          0.3652          0.4040 
       58750.00          0.4308          0.5165 
       58800.00          0.3431          0.5172 
       58850.00          0.4125          0.6055 
       58900.00          0.4575          0.6048 
       58950.00          0.4641          0.5869 
       59000.00          0.4323          0.6209 
       59050.00          0.4708          0.5572 
       59100.00          0.4273          0.4950 
       59150.00          0.3861          0.4548 
       59200.00          0.4154          0.4023 
       59250.00          0.4388          0.3441 
       59300.00          0.5020          0.3591 
       59350.00          0.5175          0.3842 
       59400.00          0.4680          0.3953 
       59450.00          0.4157          0.4327 
       59500.00          0.4467          0.4614 
       59550.00          0.4230          0.4600 
       59600.00          0.4420          0.4849 
       59650.00          0.3995          0.4839 
       59700.00          0.4280          0.4610 
       59750.00          0.3764          0.5680 
       59800.00          0.3807          0.5167 
       59850.00          0.3637          0.4494 
       59900.00          0.4353          0.4405 
       59950.00          0.4417          0.4916 
       60000.00          0.3839          0.4347 
       60050.00          0.3604          0.4062 
       60100.00          0.4012          0.5111 
       60150.00          0.3850          0.4683 
       60200.00          0.4125          0.3440 
       60250.00          0.4219          0.3652 
       60300.00          0.4131          0.4641 
       60350.00          0.4097          0.5168 
       60400.00          0.4173          0.5154 
       60450.00          0.4251          0.5700 
       60500.00          0.3964          0.5251 
       60550.00          0.3842          0.5241 
       60600.00          0.3782          0.5158 
       60650.00          0.3911          0.5048 
       60700.00          0.3810          0.4545 
       60750.00          0.3743          0.4501 
       60800.00          0.3757          0.4549 
       60850.00          0.3948          0.4809 
       60900.00          0.3965          0.4305 
       60950.00          0.4273          0.4002 
       61000.00          0.4931          0.3109 
       61050.00          0.3990          0.4013 
       61100.00          0.4282          0.3755 
       61150.00          0.4123          0.3009 
       61200.00          0.4016          0.3202 
       61250.00          0.4022          0.3360 
       61300.00          0.3580          0.3861 
       61350.00          0.3147          0.4832 
       61400.00          0.3014          0.4757 
       61450.00          0.3572          0.5376 
       61500.00          0.4300          0.6261 
       61550.00          0.3825          0.5495 
       61600.00          0.4594          0.5546 
       61650.00          0.4571          0.5904 
       61700.00          0.4510          0.5974 
       61750.00          0.4079          0.4858 
       61800.00          0.4321          0.4253 
       61850.00          0.4103          0.4684 
       61900.00          0.3877          0.5473 
       61950.00          0.4521          0.5680 
       62000.00          0.4845          0.6639 
       62050.00          0.4458          0.6000 
       62100.00          0.4224          0.5388 
       62150.00          0.3788          0.5519 
       62200.00          0.3729          0.5114 
       62250.00          0.4407          0.4980 
       62300.00          0.4424          0.5833 
       62350.00          0.4399          0.5408 
       62400.00          0.4245          0.5583 
       62450.00          0.4169          0.5063 
       62500.00          0.3887          0.5349 
       62550.00          0.4062          0.6065 
       62600.00          0.3675          0.5831 
       62650.00          0.4252          0.6432 
       62700.00          0.3766          0.4439 
       62750.00          0.4212          0.5146 
       62800.00          0.4015          0.4987 
       62850.00          0.4371          0.4499 
       62900.00          0.4129          0.4522 
       62950.00          0.3691          0.5609 
       63000.00          0.4448          0.6100 
       63050.00          0.5288          0.6918 
       63100.00          0.4845          0.6098 
       63150.00          0.4593          0.6733 
       63200.00          0.5356          0.7784 
       63250.00          0.4336          0.6423 
       63300.00          0.4134          0.6463 
       63350.00          0.4525          0.6664 
       63400.00          0.4397          0.6104 
       63450.00          0.4455          0.6383 
       63500.00          0.4174          0.6561 
       63550.00          0.4796          0.7181 
       63600.00          0.4539          0.6592 
       63650.00          0.4967          0.6706 
       63700.00          0.5222          0.6687 
       63750.00          0.4664          0.6576 
       63800.00          0.4526          0.6604 
       63850.00          0.4453          0.6334 
       63900.00          0.4429          0.6271 
       63950.00          0.4911          0.6820 
       64000.00          0.4890          0.6656 
       64050.00          0.4199          0.6467 
       64100.00          0.3796          0.5574 
       64150.00          0.4684          0.6406 
       64200.00          0.4132          0.5672 
       64250.00          0.4064          0.5876 
       64300.00          0.4074          0.5750 
       64350.00          0.4226          0.6034 
       64400.00          0.4107          0.6191 
       64450.00          0.4067          0.4954 
       64500.00          0.3852          0.4968 
       64550.00          0.4013          0.4796 
       64600.00          0.3783          0.4639 
       64650.00          0.4020          0.4881 
       64700.00          0.4269          0.5816 
       64750.00          0.4293          0.6256 
       64800.00          0.4200          0.6068 
       64850.00          0.4587          0.6024 
       64900.00          0.4181          0.5629 
       64950.00          0.4925          0.6402 
       65000.00          0.5042          0.6540 
       65050.00          0.4690          0.5952 
       65100.00          0.4007          0.5677 
       65150.00          0.3936          0.5465 
       65200.00          0.4165          0.5557 
       65250.00          0.3692          0.5271 
       65300.00          0.3694          0.5679 
       65350.00          0.3783          0.6006 
       65400.00          0.3580          0.6212 
       65450.00          0.4016          0.6390 
       65500.00          0.4003          0.5731 
       65550.00          0.3845          0.5935 
       65600.00          0.4219          0.6609 
       65650.00          0.4264          0.6370 
       65700.00          0.4418          0.5916 
       65750.00          0.3754          0.4675 
       65800.00          0.3532          0.4401 
       65850.00          0.3873          0.3789 
       65900.00          0.4446          0.4789 
       65950.00          0.4487          0.5031 
       66000.00          0.4100          0.4564 
       66050.00          0.4059          0.4884 
       66100.00          0.4006          0.4983 
       66150.00          0.3971          0.5058 
       66200.00          0.3624          0.4758 
       66250.00          0.3774          0.4935 
       66300.00          0.4261          0.5172 
       66350.00          0.4479          0.5485 
       66400.00          0.3932          0.5601 
       66450.00          0.3514          0.5268 
       66500.00          0.3170          0.5032 
       66550.00          0.3445          0.5308 
       66600.00          0.3632          0.5224 
       66650.00          0.3509          0.4966 
       66700.00          0.3853          0.5057 
       66750.00          0.4026          0.5182 
       66800.00          0.4270          0.5053 
       66850.00          0.4201          0.5622 
       66900.00          0.4526          0.6379 
       66950.00          0.4081          0.5666 
       67000.00          0.4082          0.5899 
       67050.00          0.4110          0.5813 
       67100.00          0.3786          0.4768 
       67150.00          0.4283          0.4239 
       67200.00          0.3700          0.4310 
       67250.00          0.3716          0.4025 
       67300.00          0.3281          0.4205 
       67350.00          0.3851          0.3816 
       67400.00          0.4151          0.3763 
       67450.00          0.3969          0.3582 
       67500.00          0.3571          0.3781 
       67550.00          0.3309          0.4055 
       67600.00          0.3246          0.4200 
       67650.00          0.3251          0.4643 
       67700.00          0.3160          0.4308 
       67750.00          0.3384          0.4948 
       67800.00          0.3118          0.4973 
       67850.00          0.3706          0.4587 
       67900.00          0.3650          0.3756 
       67950.00          0.3578          0.3946 
       68000.00          0.3117          0.5302 
       68050.00          0.3356          0.5168 
       68100.00          0.3611          0.4715 
       68150.00          0.3768          0.4253 
       68200.00          0.3690          0.4608 
       68250.00          0.3965          0.5301 
       68300.00          0.3681          0.4946 
       68350.00          0.3425          0.4979 
       68400.00          0.3763          0.5386 
       68450.00          0.2624          0.5058 
       68500.00          0.2433          0.5170 
       68550.00          0.2769          0.4645 
       68600.00          0.2570          0.4816 
       68650.00          0.2657          0.4469 
       68700.00          0.3220          0.4254 
       68750.00          0.3350          0.3573 
       68800.00          0.3411          0.4242 
       68850.00          0.3753          0.4628 
       68900.00          0.3570          0.4839 
       68950.00          0.3639          0.5170 
       69000.00          0.3871          0.4902 
       69050.00          0.3828          0.4969 
       69100.00          0.3804          0.5286 
       69150.00          0.3774          0.5340 
       69200.00          0.4203          0.5110 
       69250.00          0.4456          0.5722 
       69300.00          0.4540          0.5644 
       69350.00          0.4585          0.6015 
       69400.00          0.4559          0.6255 
       69450.00          0.4362          0.5965 
       69500.00          0.4328          0.6263 
       69550.00          0.4000          0.6068 
       69600.00          0.4403          0.6082 
       69650.00          0.4280          0.6364 
       69700.00          0.4549          0.6757 
       69750.00          0.4226          0.6325 
       69800.00          0.4091          0.6074 
       69850.00          0.3519          0.5522 
       69900.00          0.4075          0.5923 
       69950.00          0.4221          0.5539 
       70000.00          0.4275          0.5423 
       70050.00          0.4675          0.5888 
       70100.00          0.4542          0.6290 
       70150.00          0.4692          0.6473 
       70200.00          0.4858          0.6722 
       70250.00          0.4815          0.6845 
       70300.00          0.5178          0.7078 
       70350.00          0.4892          0.6738 
       70400.00          0.5107          0.7292 
       70450.00          0.4588          0.6644 
       70500.00          0.4927          0.6739 
       70550.00          0.5076          0.6581 
       70600.00          0.5093          0.6891 
       70650.00          0.4964          0.7044 
       70700.00          0.4276          0.6534 
       70750.00          0.4046          0.6481 
       70800.00          0.3678          0.5850 
       70850.00          0.4174          0.5976 
       70900.00          0.4212          0.5949 
       70950.00          0.4518          0.5369 
       71000.00          0.4132          0.4848 
       71050.00          0.4008          0.4441 
       71100.00          0.3697          0.4376 
       71150.00          0.3638          0.4267 
       71200.00          0.3746          0.3725 
       71250.00          0.3325          0.4140 
       71300.00          0.3738          0.3844 
       71350.00          0.4318          0.4480 
       71400.00          0.3776          0.5083 
       71450.00          0.3575          0.5121 
       71500.00          0.3233          0.4973 
       71550.00          0.3039          0.5250 
       71600.00          0.3485          0.4583 
       71650.00          0.3591          0.4604 
       71700.00          0.3401          0.5091 
       71750.00          0.3581          0.4496 
       71800.00          0.4202          0.3890 
       71850.00          0.4175          0.3595 
       71900.00          0.4137          0.3423 
       71950.00          0.4406          0.3843 
       72000.00          0.4023          0.3714 
       72050.00          0.4196          0.2909 
       72100.00          0.3943          0.3488 
       72150.00          0.3554          0.4365 
       72200.00          0.3743          0.3896 
       72250.00          0.3888          0.3732 
       72300.00          0.3149          0.3460 
       72350.00          0.3371          0.3902 
       72400.00          0.3556          0.3899 
       72450.00          0.3241          0.4302 
       72500.00          0.2914          0.4443 
       72550.00          0.3406          0.3509 
       72600.00          0.3627          0.3371 
       72650.00          0.3754          0.3458 
       72700.00          0.3412          0.3899 
       72750.00          0.3679          0.3532 
       72800.00          0.3866          0.3652 
       72850.00          0.3480          0.3593 
       72900.00          0.3665          0.3657 
       72950.00          0.3468          0.4055 
       73000.00          0.3388          0.3465 
       73050.00          0.3453          0.3479 
       73100.00          0.3682          0.3335 
       73150.00          0.3765          0.3273 
       73200.00          0.3332          0.3383 
       73250.00          0.3418          0.3136 
       73300.00          0.3512          0.3545 
       73350.00          0.3550          0.3655 
       73400.00          0.3105          0.3780 
       73450.00          0.3264          0.4018 
       73500.00          0.3074          0.3976 
       73550.00          0.3071          0.4182 
       73600.00          0.3311          0.3778 
       73650.00          0.3287          0.3619 
       73700.00          0.3161          0.4075 
       73750.00          0.2929          0.3281 
       73800.00          0.3438          0.3060 
       73850.00          0.3682          0.3026 
       73900.00          0.3540          0.3023 
       73950.00          0.3879          0.2958 
       74000.00          0.3911          0.3131 
       74050.00          0.3944          0.3123 
       74100.00          0.3871          0.2932 
       74150.00          0.3710          0.2896 
       74200.00          0.3338          0.2681 
       74250.00          0.3052          0.3485 
       74300.00          0.2912          0.3855 
       74350.00          0.2990          0.3876 
       74400.00          0.3301          0.3989 
       74450.00          0.3352          0.3914 
       74500.00          0.3223          0.4161 
       74550.00          0.3192          0.3897 
       74600.00          0.3302          0.3817 
       74650.00          0.3425          0.3874 
       74700.00          0.3209          0.4508 
       74750.00          0.3304          0.3932 
       74800.00          0.3180          0.3998 
       74850.00          0.3330          0.3730 
       74900.00          0.3404          0.3728 
       74950.00          0.3192          0.4028 
       75000.00          0.2521          0.4213 
       75050.00          0.2808          0.3846 
       75100.00          0.2818          0.4154 
       75150.00          0.2771          0.3643 
       75200.00          0.2773          0.4282 
       75250.00          0.3168          0.4744 
       75300.00          0.3050          0.4719 
       75350.00          0.3167          0.4276 
       75400.00          0.2542          0.4086 
       75450.00          0.2701          0.4170 
       75500.00          0.2459          0.4140 
       75550.00          0.2785          0.3955 
       75600.00          0.2404          0.4130 
       75650.00          0.2615          0.4175 
       75700.00          0.3108          0.3868 
       75750.00          0.3145          0.4199 
       75800.00          0.3088          0.4524 
       75850.00          0.3482          0.3788 
       75900.00          0.3293          0.3567 
       75950.00          0.3171          0.3881 
       76000.00          0.3121          0.4209 
       76050.00          0.2971          0.4329 
       76100.00          0.3538          0.4521 
       76150.00          0.3828          0.5344 
       76200.00          0.4051          0.5375 
       76250.00          0.3907          0.5545 
       76300.00          0.4013          0.6137 
       76350.00          0.3714          0.6068 
       76400.00          0.3921          0.6092 
       76450.00          0.3021          0.5297 
       76500.00          0.4080          0.5375 
       76550.00          0.3910          0.4428 
       76600.00          0.3806          0.3935 
       76650.00          0.4266          0.4616 
       76700.00          0.3945          0.5403 
       76750.00          0.4134          0.5384 
       76800.00          0.4113          0.4876 
       76850.00          0.3918          0.5638 
       76900.00          0.4250          0.5891 
       76950.00          0.3662          0.6107 
       77000.00          0.3122          0.5382 
       77050.00          0.3589          0.5768 
       77100.00          0.3953          0.6360 
       77150.00          0.4565          0.6223 
       77200.00          0.4154          0.6366 
       77250.00          0.4878          0.6558 
       77300.00          0.3992          0.5666 
       77350.00          0.4132          0.6006 
       77400.00          0.3884          0.5797 
       77450.00          0.3814          0.5712 
       77500.00          0.3700          0.5824 
       77550.00          0.3643          0.5647 
       77600.00          0.3031          0.5765 
       77650.00          0.3575          0.5169 
       77700.00          0.3421          0.5212 
       77750.00          0.3942          0.4832 
       77800.00          0.4090          0.5145 
       77850.00          0.4474          0.6157 
       77900.00          0.4622          0.6219 
       77950.00          0.4257          0.5742 
       78000.00          0.4180          0.5912 
       78050.00          0.4095          0.4451 
       78100.00          0.3861          0.3888 
       78150.00          0.3866          0.3751 
       78200.00          0.3955          0.3723 
       78250.00          0.4331          0.3700 
       78300.00          0.4233          0.4434 
       78350.00          0.3905          0.4645 
       78400.00          0.3919          0.5067 
       78450.00          0.4259          0.5194 
       78500.00          0.3745          0.5646 
       78550.00          0.3793          0.6329 
       78600.00          0.4131          0.6428 
       78650.00          0.4056          0.6001 
       78700.00          0.4546          0.5806 
       78750.00          0.4451          0.5360 
       78800.00          0.4628          0.6546 
       78850.00          0.4488          0.6391 
       78900.00          0.4209          0.5728 
       78950.00          0.4449          0.5232 
       79000.00          0.4277          0.5570 
       79050.00          0.3981          0.5760 
       79100.00          0.4580          0.5505 
       79150.00          0.4420          0.5565 
       79200.00          0.3637          0.5796 
       79250.00          0.3632          0.5887 
       79300.00          0.4014          0.5409 
       79350.00          0.4102          0.5378 
       79400.00          0.4076          0.5533 
       79450.00          0.4160          0.5189 
       79500.00          0.4126          0.5107 
       79550.00          0.3761          0.4811 
       79600.00          0.3809          0.4056 
       79650.00          0.3878          0.3934 
       79700.00          0.3654          0.4290 
       79750.00          0.3880          0.4572 
       79800.00          0.4068          0.3695 
       79850.00          0.4026          0.3862 
       79900.00          0.4057          0.4032 
       79950.00          0.4163          0.4117 
       80000.00          0.4110          0.4180 
       80050.00          0.3918          0.3685 
       80100.00          0.3696          0.3714 
       80150.00          0.3529          0.3808 
       80200.00          0.3422          0.3962 
       80250.00          0.3610          0.3181 
       80300.00          0.2780          0.3626 
       80350.00          0.3142          0.3984 
       80400.00          0.3480          0.3385 
       80450.00          0.3696          0.4035 
       80500.00          0.4206          0.3512 
       80550.00          0.4526          0.3348 
       80600.00          0.4069          0.3672 
       80650.00          0.4007          0.4342 
       80700.00          0.4185          0.4204 
       80750.00          0.3925          0.4523 
       80800.00          0.3755          0.4700 
       80850.00          0.3922          0.4620 
       80900.00          0.3852          0.4336 
       80950.00          0.4137          0.4145 
       81000.00          0.4191          0.3471 
       81050.00          0.4559          0.3365 
       81100.00          0.4727          0.2837 
       81150.00          0.4715          0.2887 
       81200.00          0.4809          0.3045 
       81250.00          0.4514          0.3206 
       81300.00          0.4754          0.2979 
       81350.00          0.4179          0.3936 
       81400.00          0.4291          0.3897 
       81450.00          0.4000          0.4586 
       81500.00          0.4369          0.4593 
       81550.00          0.4200          0.4479 
       81600.00          0.4149          0.3860 
       81650.00          0.4191          0.3672 
       81700.00          0.4836          0.2992 
       81750.00          0.4874          0.3508 
       81800.00          0.4427          0.3756 
       81850.00          0.3995          0.4528 
       81900.00          0.4102          0.4386 
       81950.00          0.4598          0.4632 
       82000.00          0.4002          0.4781 
       82050.00          0.4107          0.4513 
       82100.00          0.3611          0.5213 
       82150.00          0.3529          0.5835 
       82200.00          0.3827          0.5846 
       82250.00          0.3645          0.5710 
       82300.00          0.3216          0.5402 
       82350.00          0.3139          0.5064 
       82400.00          0.3977          0.5706 
       82450.00          0.3798          0.5173 
       82500.00          0.4005          0.5353 
       82550.00          0.4546          0.6165 
       82600.00          0.4281          0.5742 
       82650.00          0.4552          0.5727 
       82700.00          0.4562          0.5902 
       82750.00          0.4378          0.6468 
       82800.00          0.4522          0.5760 
       82850.00          0.4416          0.6007 
       82900.00          0.3869          0.5374 
       82950.00          0.3397          0.5053 
       83000.00          0.3976          0.5281 
       83050.00          0.3947          0.4289 
       83100.00          0.4079          0.4867 
       83150.00          0.4176          0.5514 
       83200.00          0.4471          0.5668 
       83250.00          0.4344          0.5731 
       83300.00          0.4730          0.5927 
       83350.00          0.4153          0.5787 
       83400.00          0.3555          0.4985 
       83450.00          0.2575          0.5046 
       83500.00          0.3209          0.6002 
       83550.00          0.3286          0.5488 
       83600.00          0.3712          0.5396 
       83650.00          0.3283          0.5185 
       83700.00          0.4021          0.5359 
       83750.00          0.3849          0.4809 
       83800.00          0.4376          0.4432 
       83850.00          0.4037          0.4426 
       83900.00          0.3782          0.4440 
       83950.00          0.4117          0.4659 
       84000.00          0.4166          0.5056 
       84050.00          0.4047          0.5205 
       84100.00          0.4282          0.4802 
       84150.00          0.4297          0.4759 
       84200.00          0.4773          0.4549 
       84250.00          0.4339          0.5279 
       84300.00          0.4276          0.5289 
       84350.00          0.4119          0.4970 
       84400.00          0.4460          0.5608 
       84450.00          0.4038          0.4822 
       84500.00          0.4215          0.5565 
       84550.00          0.3741          0.5128 
       84600.00          0.3885          0.5393 
       84650.00          0.3865          0.5127 
       84700.00          0.4283          0.5313 
       84750.00          0.4588          0.5948 
       84800.00          0.4175          0.5658 
       84850.00          0.4123          0.5853 
       84900.00          0.3781          0.6239 
       84950.00          0.3716          0.6039 
       85000.00          0.3854          0.6222 
       85050.00          0.3937          0.5898 
       85100.00          0.4905          0.6318 
       85150.00          0.4448          0.5712 
       85200.00          0.4207          0.5628 
       85250.00          0.4440          0.5421 
       85300.00          0.3700          0.4511 
       85350.00          0.3909          0.5073 
       85400.00          0.3913          0.5717 
       85450.00          0.4386          0.5797 
       85500.00          0.4528          0.6294 
       85550.00          0.4615          0.6433 
       85600.00          0.4878          0.6343 
       85650.00          0.4880          0.6546 
       85700.00          0.4735          0.6211 
       85750.00          0.4340          0.5647 
       85800.00          0.4297          0.6102 
       85850.00          0.4253          0.5545 
       85900.00          0.4649          0.5749 
       85950.00          0.3840          0.5837 
       86000.00          0.4168          0.5672 
       86050.00          0.4033          0.5227 
       86100.00          0.4093          0.5608 
       86150.00          0.4161          0.6176 
       86200.00          0.4312          0.6515 
       86250.00          0.4588          0.6655 
       86300.00          0.5030          0.6659 
       86350.00          0.5188          0.7282 
       86400.00          0.4990          0.7063 
       86450.00          0.4684          0.6528 
       86500.00          0.4450          0.6034 
       86550.00          0.4555          0.6281 
       86600.00          0.4167          0.4975 
       86650.00          0.3992          0.4784 
       86700.00          0.3855          0.4803 
       86750.00          0.3978          0.4576 
       86800.00          0.3830          0.4518 
       86850.00          0.3858          0.5423 
       86900.00          0.4199          0.5905 
       86950.00          0.3795          0.5548 
       87000.00          0.3784          0.5555 
       87050.00          0.4200          0.6264 
       87100.00          0.4414          0.6453 
       87150.00          0.4789          0.6718 
       87200.00          0.4011          0.6271 
       87250.00          0.4114          0.6026 
       87300.00          0.4361          0.6139 
       87350.00          0.5139          0.7389 
       87400.00          0.4849          0.7213 
       87450.00          0.4869          0.7072 
       87500.00          0.4373          0.6845 
       87550.00          0.4452          0.6518 
       87600.00          0.4188          0.6103 
       87650.00          0.4118          0.5292 
       87700.00          0.4466          0.5758 
       87750.00          0.4144          0.5185 
       87800.00          0.4320          0.5698 
       87850.00          0.4271          0.5971 
       87900.00          0.4029          0.6061 
       87950.00          0.4727          0.6957 
       88000.00          0.4098          0.6301 
       88050.00          0.4476          0.6961 
       88100.00          0.4349          0.6486 
       88150.00          0.4559          0.6630 
       88200.00          0.5066          0.7306 
       88250.00          0.4776          0.6807 
       88300.00          0.5223          0.7403 
       88350.00          0.4998          0.7241 
       88400.00          0.4692          0.7142 
       88450.00          0.4722          0.6841 
       88500.00          0.4601          0.6888 
       88550.00          0.4553          0.6853 
       88600.00          0.4540          0.6140 
       88650.00          0.3785          0.6135 
       88700.00          0.3699          0.5847 
       88750.00          0.4018          0.6163 
       88800.00          0.4271          0.6893 
       88850.00          0.4034          0.5953 
       88900.00          0.4182          0.5030 
       88950.00          0.3794          0.4447 
       89000.00          0.3995          0.4830 
       89050.00          0.4142          0.4442 
       89100.00          0.3865          0.4873 
       89150.00          0.3248          0.4860 
       89200.00          0.3292          0.4445 
       89250.00          0.3825          0.3542 
       89300.00          0.4311          0.3536 
       89350.00          0.3687          0.4531 
       89400.00          0.4075          0.4361 
       89450.00          0.4366          0.6247 
       89500.00          0.4252          0.6196 
       89550.00          0.4674          0.6753 
       89600.00          0.3973          0.6099 
       89650.00          0.4678          0.6103 
       89700.00          0.4443          0.5873 
       89750.00          0.4081          0.5757 
       89800.00          0.3824          0.5298 
       89850.00          0.4435          0.6091 
       89900.00          0.4117          0.5936 
       89950.00          0.4499          0.6046 
       90000.00          0.4548          0.5948 
       90050.00          0.4119          0.6022 
       90100.00          0.4425          0.5885 
       90150.00          0.4787          0.6360 
       90200.00          0.4580          0.6041 
       90250.00          0.4605          0.6286 
       90300.00          0.4378          0.5451 
       90350.00          0.4356          0.5914 
       90400.00          0.3934          0.5635 
       90450.00          0.4928          0.6253 
       90500.00          0.4531          0.5895 
       90550.00          0.4524          0.6731 
       90600.00          0.4688          0.6842 
       90650.00          0.4708          0.6859 
       90700.00          0.4525          0.6814 
       90750.00          0.4694          0.7124 
       90800.00          0.4896          0.7316 
       90850.00          0.4685          0.7258 
       90900.00          0.4614          0.6729 
       90950.00          0.4520          0.6578 
       91000.00          0.4408          0.5327 
       91050.00          0.3886          0.3795 
       91100.00          0.3902          0.3451 
       91150.00          0.4684          0.2985 
       91200.00          0.4620          0.2653 
       91250.00          0.4540          0.2973 
       91300.00          0.4704          0.2862 
       91350.00          0.4681          0.2332 
       91400.00          0.4823          0.2537 
       91450.00          0.5026          0.2829 
       91500.00          0.4305          0.3434 
       91550.00          0.4101          0.3767 
       91600.00          0.4022          0.4237 
       91650.00          0.4194          0.3687 
       91700.00          0.4312          0.4175 
       91750.00          0.3826          0.5097 
       91800.00          0.3887          0.5033 
       91850.00          0.3809          0.5188 
       91900.00          0.3881          0.5945 
       91950.00          0.3299          0.5560 
       92000.00          0.2934          0.6172 
       92050.00          0.2896          0.5560 
       92100.00          0.3211          0.5278 
       92150.00          0.3735          0.5062 
       92200.00          0.3128          0.5231 
       92250.00          0.2771          0.5689 
       92300.00          0.3356          0.5948 
       92350.00          0.3077          0.4834 
       92400.00          0.3252          0.4733 
       92450.00          0.3416          0.4236 
       92500.00          0.3798          0.4277 
       92550.00          0.3126          0.4412 
       92600.00          0.3536          0.4468 
       92650.00          0.3675          0.4495 
       92700.00          0.4056          0.5879 
       92750.00          0.4403          0.5645 
       92800.00          0.4537          0.5916 
       92850.00          0.3910          0.4925 
       92900.00          0.3624          0.4079 
       92950.00          0.3618          0.3952 
       93000.00          0.3380          0.4352 
       93050.00          0.3147          0.4447 
       93100.00          0.4064          0.3370 
       93150.00          0.4023          0.3676 
       93200.00          0.3629          0.4512 
       93250.00          0.3694          0.5326 
       93300.00          0.3757          0.4271 
       93350.00          0.3604          0.4947 
       93400.00          0.3867          0.3493 
       93450.00          0.3646          0.4515 
       93500.00          0.3573          0.5084 
       93550.00          0.3471          0.5189 
       93600.00          0.3744          0.5127 
       93650.00          0.3640          0.5117 
       93700.00          0.3916          0.4728 
       93750.00          0.3390          0.4557 
       93800.00          0.3987          0.4890 
       93850.00          0.3862          0.5297 
       93900.00          0.3844          0.4672 
       93950.00          0.3871          0.5270 
       94000.00          0.4251          0.5595 
       94050.00          0.4135          0.5810 
       94100.00          0.3904          0.5089 
       94150.00          0.4090          0.5133 
       94200.00          0.3749          0.4828 
       94250.00          0.4348          0.5362 
       94300.00          0.4279          0.5568 
       94350.00          0.4782          0.6244 
       94400.00          0.4633          0.6294 
       94450.00          0.4283          0.6377 
       94500.00          0.4926          0.6503 
       94550.00          0.4370          0.6325 
       94600.00          0.4366          0.6008 
       94650.00          0.3766          0.6193 
       94700.00          0.4285          0.6287 
       94750.00          0.4664          0.6256 
       94800.00          0.4410          0.6485 
       94850.00          0.4281          0.6615 
       94900.00          0.4024          0.6055 
       94950.00          0.4027          0.5818 
       95000.00          0.4222          0.5618 
       95050.00          0.3628          0.4760 
       95100.00          0.4004          0.5021 
       95150.00          0.4133          0.5475 
       95200.00          0.3762          0.4942 
       95250.00          0.3773          0.4876 
       95300.00          0.3797          0.4958 
       95350.00          0.3417          0.4830 
       95400.00          0.3278          0.4290 
       95450.00          0.3266          0.4144 
       95500.00          0.3585          0.3801 
       95550.00          0.3998          0.4459 
       95600.00          0.4016          0.4235 
       95650.00          0.4117          0.4722 
       95700.00          0.4069          0.4233 
       95750.00          0.4130          0.4419 
       95800.00          0.3600          0.4987 
       95850.00          0.3707          0.5002 
       95900.00          0.3688          0.4752 
       95950.00          0.3792          0.4730 
       96000.00          0.3906          0.4908 
       96050.00          0.4598          0.4629 
       96100.00          0.3958          0.4783 
       96150.00          0.3607          0.5314 
       96200.00          0.3096          0.5505 
       96250.00          0.3775          0.6437 
       96300.00          0.3659          0.6181 
       96350.00          0.4342          0.6753 
       96400.00          0.4198          0.6764 
       96450.00          0.3687          0.5800 
       96500.00          0.3809          0.5840 
       96550.00          0.4200          0.5310 
       96600.00          0.3864          0.5184 
       96650.00          0.3565          0.4299 
       96700.00          0.4132          0.5220 
       96750.00          0.4126          0.4537 
       96800.00          0.3841          0.4614 
       96850.00          0.4696          0.5916 
       96900.00          0.4342          0.5648 
       96950.00          0.4433          0.5157 
       97000.00          0.4266          0.4817 
       97050.00          0.4621          0.6110 
       97100.00          0.4680          0.5472 
       97150.00          0.3715          0.4937 
       97200.00          0.3622          0.4256 
       97250.00          0.3613          0.3957 
       97300.00          0.4193          0.3035 
       97350.00          0.4061          0.3015 
       97400.00          0.3705          0.2895 
       97450.00          0.4138          0.3957 
       97500.00          0.3764          0.4322 
       97550.00          0.3877          0.4588 
       97600.00          0.3698          0.4613 
       97650.00          0.3969          0.6193 
       97700.00          0.4305          0.5787 
       97750.00          0.4647          0.5567 
       97800.00          0.4449          0.6291 
       97850.00          0.4223          0.5599 
       97900.00          0.4541          0.5572 
       97950.00          0.4634          0.5922 
       98000.00          0.4645          0.6056 
       98050.00          0.4362          0.5504 
       98100.00          0.4418          0.4973 
       98150.00          0.4129          0.4534 
       98200.00          0.4583          0.5700 
       98250.00          0.4398          0.5468 
       98300.00          0.4559          0.5777 
       98350.00          0.4449          0.5605 
       98400.00          0.4578          0.5946 
       98450.00          0.4896          0.6641 
       98500.00          0.4807          0.6578 
       98550.00          0.4592          0.6716 
       98600.00          0.4630          0.6750 
       98650.00          0.4155          0.6460 
       98700.00          0.4104          0.6461 
       98750.00          0.4298          0.6192 
       98800.00          0.4218          0.6428 
       98850.00          0.4228          0.6437 
       98900.00          0.4010          0.6444 
       98950.00          0.3799          0.6158 
       99000.00          0.3706          0.5799 
       99050.00          0.3998          0.5918 
       99100.00          0.4010          0.5962 
       99150.00          0.4097          0.5448 
       99200.00          0.4050          0.5092 
       99250.00          0.4005          0.5048 
       99300.00          0.4037          0.4626 
       99350.00          0.4304          0.4585 
       99400.00          0.3946          0.4680 
       99450.00          0.4195          0.4962 
       99500.00          0.3902          0.4429 
       99550.00          0.4037          0.4494 
       99600.00          0.4243          0.4349 
       99650.00          0.4367          0.4286 
       99700.00          0.4016          0.4204 
       99750.00          0.3950          0.4231 
       99800.00          0.3558          0.3778 
       99850.00          0.3272          0.4006 
       99900.00          0.3139          0.3984 
       99950.00          0.3550          0.4148 
      100000.00          0.4234          0.3089 
