@    xaxis  label "t"
@    yaxis  label "RMSD (nm)"
           0.00          0.0000          0.4517 
          50.00          0.1803          0.4960 
         100.00          0.2716          0.4515 
         150.00          0.4141          0.3451 
         200.00          0.3706          0.4090 
         250.00          0.4301          0.3466 
         300.00          0.4752          0.3221 
         350.00          0.3631          0.3921 
         400.00          0.4095          0.3670 
         450.00          0.4325          0.4297 
         500.00          0.4205          0.3492 
         550.00          0.4069          0.3750 
         600.00          0.4160          0.4174 
         650.00          0.4101          0.5050 
         700.00          0.3929          0.6042 
         750.00          0.3848          0.5937 
         800.00          0.3746          0.6192 
         850.00          0.3310          0.5823 
         900.00          0.3501          0.5191 
         950.00          0.3547          0.5033 
        1000.00          0.3520          0.5306 
        1050.00          0.3369          0.5500 
        1100.00          0.3522          0.5607 
        1150.00          0.3730          0.5493 
        1200.00          0.4008          0.6100 
        1250.00          0.4574          0.6846 
        1300.00          0.3892          0.5793 
        1350.00          0.3540          0.5218 
        1400.00          0.3851          0.5305 
        1450.00          0.3926          0.5860 
        1500.00          0.3631          0.5387 
        1550.00          0.3664          0.5965 
        1600.00          0.4033          0.6026 
        1650.00          0.3664          0.5252 
        1700.00          0.4047          0.5583 
        1750.00          0.3853          0.6111 
        1800.00          0.4143          0.6347 
        1850.00          0.4165          0.5933 
        1900.00          0.4210          0.6330 
        1950.00          0.3407          0.6012 
        2000.00          0.3066          0.5099 
        2050.00          0.3579          0.4547 
        2100.00          0.3602          0.4649 
        2150.00          0.4074          0.4004 
        2200.00          0.3511          0.4104 
        2250.00          0.3747          0.4452 
        2300.00          0.3763          0.4945 
        2350.00          0.3434          0.5097 
        2400.00          0.4073          0.5461 
        2450.00          0.3725          0.5188 
        2500.00          0.3387          0.5841 
        2550.00          0.3467          0.5570 
        2600.00          0.4149          0.5931 
        2650.00          0.4109          0.5076 
        2700.00          0.3725          0.5165 
        2750.00          0.3648          0.5159 
        2800.00          0.3280          0.4707 
        2850.00          0.3546          0.5045 
        2900.00          0.3114          0.4630 
        2950.00          0.3449          0.5200 
        3000.00          0.3906          0.4898 
        3050.00          0.4226          0.4831 
        3100.00          0.3928          0.4364 
        3150.00          0.3575          0.4475 
        3200.00          0.3854          0.4765 
        3250.00          0.3815          0.4858 
        3300.00          0.4038          0.4869 
        3350.00          0.4528          0.3888 
        3400.00          0.4345          0.3941 
        3450.00          0.4438          0.2458 
        3500.00          0.4282          0.2840 
        3550.00          0.4072          0.3021 
        3600.00          0.4553          0.4571 
        3650.00          0.4159          0.4325 
        3700.00          0.4269          0.4349 
        3750.00          0.4162          0.4146 
        3800.00          0.3394          0.3977 
        3850.00          0.3576          0.3493 
        3900.00          0.3043          0.3947 
        3950.00          0.2255          0.4226 
        4000.00          0.3305          0.3611 
        4050.00          0.3082          0.3853 
        4100.00          0.3121          0.4032 
        4150.00          0.2802          0.4085 
        4200.00          0.2750          0.4398 
        4250.00          0.3222          0.3701 
        4300.00          0.3105          0.3419 
        4350.00          0.3047          0.3451 
        4400.00          0.3094          0.3986 
        4450.00          0.3224          0.3471 
        4500.00          0.3306          0.3580 
        4550.00          0.2880          0.4039 
        4600.00          0.3147          0.4608 
        4650.00          0.2702          0.5422 
        4700.00          0.4118          0.6615 
        4750.00          0.3542          0.6051 
        4800.00          0.3533          0.5528 
        4850.00          0.4258          0.6343 
        4900.00          0.4359          0.6213 
        4950.00          0.3976          0.6383 
        5000.00          0.4564          0.6542 
        5050.00          0.4298          0.6018 
        5100.00          0.3925          0.5416 
        5150.00          0.4277          0.5695 
        5200.00          0.3967          0.5106 
        5250.00          0.4105          0.5790 
        5300.00          0.4268          0.5330 
        5350.00          0.4658          0.6763 
        5400.00          0.4468          0.6634 
        5450.00          0.4379          0.6467 
        5500.00          0.4668          0.6229 
        5550.00          0.4542          0.6411 
        5600.00          0.4925          0.6356 
        5650.00          0.4744          0.6880 
        5700.00          0.4203          0.6048 
        5750.00          0.3939          0.5351 
        5800.00          0.4098          0.5515 
        5850.00          0.3882          0.5173 
        5900.00          0.4046          0.6147 
        5950.00          0.3830          0.5797 
        6000.00          0.3942          0.6329 
        6050.00          0.4362          0.6435 
        6100.00          0.4420          0.6303 
        6150.00          0.3979          0.6378 
        6200.00          0.3724          0.5940 
        6250.00          0.3971          0.6199 
        6300.00          0.3858          0.6118 
        6350.00          0.4666          0.7149 
        6400.00          0.4658          0.6628 
        6450.00          0.4497          0.6362 
        6500.00          0.3820          0.4774 
        6550.00          0.3397          0.4414 
        6600.00          0.3909          0.3353 
        6650.00          0.3596          0.3974 
        6700.00          0.3731          0.4304 
        6750.00          0.4001          0.4807 
        6800.00          0.4124          0.4349 
        6850.00          0.4722          0.5161 
        6900.00          0.3764          0.4923 
        6950.00          0.3594          0.4312 
        7000.00          0.3640          0.5308 
        7050.00          0.3305          0.5433 
        7100.00          0.3573          0.5746 
        7150.00          0.4199          0.5843 
        7200.00          0.3765          0.5186 
        7250.00          0.3862          0.5544 
        7300.00          0.4172          0.5915 
        7350.00          0.3694          0.5113 
        7400.00          0.3398          0.4679 
        7450.00          0.3861          0.4814 
        7500.00          0.3496          0.4909 
        7550.00          0.3662          0.4619 
        7600.00          0.3747          0.4554 
        7650.00          0.3965          0.5616 
        7700.00          0.4613          0.5598 
        7750.00          0.4600          0.5982 
        7800.00          0.4313          0.5346 
        7850.00          0.4338          0.5930 
        7900.00          0.4584          0.6075 
        7950.00          0.4926          0.6405 
        8000.00          0.4285          0.5285 
        8050.00          0.4434          0.4871 
        8100.00          0.4502          0.5099 
        8150.00          0.4681          0.5213 
        8200.00          0.4190          0.5898 
        8250.00          0.4133          0.5550 
        8300.00          0.4774          0.5932 
        8350.00          0.4485          0.5920 
        8400.00          0.5609          0.7626 
        8450.00          0.5419          0.7530 
        8500.00          0.4986          0.6593 
        8550.00          0.5165          0.7201 
        8600.00          0.4750          0.6992 
        8650.00          0.4995          0.7084 
        8700.00          0.4395          0.6270 
        8750.00          0.5455          0.7551 
        8800.00          0.4643          0.6795 
        8850.00          0.4318          0.6520 
        8900.00          0.5002          0.6834 
        8950.00          0.4736          0.7118 
        9000.00          0.4422          0.6655 
        9050.00          0.4207          0.6251 
        9100.00          0.4426          0.6316 
        9150.00          0.4494          0.5744 
        9200.00          0.4117          0.4898 
        9250.00          0.3428          0.5078 
        9300.00          0.3198          0.4884 
        9350.00          0.3730          0.6078 
        9400.00          0.3627          0.5766 
        9450.00          0.4122          0.6187 
        9500.00          0.4140          0.5694 
        9550.00          0.4143          0.5928 
        9600.00          0.4217          0.6382 
        9650.00          0.4698          0.6920 
        9700.00          0.4454          0.6646 
        9750.00          0.4375          0.6426 
        9800.00          0.4047          0.5934 
        9850.00          0.4079          0.5915 
        9900.00          0.4124          0.6323 
        9950.00          0.4026          0.6036 
       10000.00          0.4185          0.6089 
       10050.00          0.3750          0.5142 
       10100.00          0.3744          0.5902 
       10150.00          0.4433          0.6527 
       10200.00          0.4200          0.5487 
       10250.00          0.4367          0.6057 
       10300.00          0.4748          0.6627 
       10350.00          0.4526          0.6502 
       10400.00          0.4183          0.6063 
       10450.00          0.4511          0.6287 
       10500.00          0.4324          0.6064 
       10550.00          0.4813          0.7214 
       10600.00          0.4825          0.6915 
       10650.00          0.5133          0.7463 
       10700.00          0.4505          0.6796 
       10750.00          0.4493          0.6817 
       10800.00          0.4432          0.6580 
       10850.00          0.4531          0.6727 
       10900.00          0.3763          0.6158 
       10950.00          0.4414          0.6794 
       11000.00          0.4528          0.6795 
       11050.00          0.4975          0.6918 
       11100.00          0.4884          0.6687 
       11150.00          0.4058          0.6216 
       11200.00          0.4303          0.5982 
       11250.00          0.5040          0.6841 
       11300.00          0.4861          0.6833 
       11350.00          0.4509          0.6401 
       11400.00          0.4684          0.5570 
       11450.00          0.4634          0.6374 
       11500.00          0.4618          0.6955 
       11550.00          0.5074          0.7390 
       11600.00          0.5013          0.7214 
       11650.00          0.5094          0.7176 
       11700.00          0.4961          0.6976 
       11750.00          0.4464          0.6434 
       11800.00          0.4418          0.5858 
       11850.00          0.3731          0.4700 
       11900.00          0.4224          0.5328 
       11950.00          0.3707          0.5057 
       12000.00          0.3494          0.5446 
       12050.00          0.3482          0.5377 
       12100.00          0.3373          0.5517 
       12150.00          0.3915          0.5825 
       12200.00          0.3513          0.5736 
       12250.00          0.3876          0.5390 
       12300.00          0.4619          0.5593 
       12350.00          0.4080          0.4407 
       12400.00          0.4181          0.4199 
       12450.00          0.3738          0.5142 
       12500.00          0.4070          0.6082 
       12550.00          0.3908          0.5624 
       12600.00          0.4352          0.5598 
       12650.00          0.4544          0.5893 
       12700.00          0.4328          0.5567 
       12750.00          0.4822          0.6144 
       12800.00          0.4927          0.5652 
       12850.00          0.3955          0.4787 
       12900.00          0.4369          0.4754 
       12950.00          0.4066          0.3894 
       13000.00          0.4066          0.3821 
       13050.00          0.3833          0.3663 
       13100.00          0.4127          0.2935 
       13150.00          0.4248          0.3242 
       13200.00          0.4350          0.2971 
       13250.00          0.3919          0.3128 
       13300.00          0.4283          0.3059 
       13350.00          0.4171          0.3118 
       13400.00          0.4546          0.3944 
       13450.00          0.4146          0.3815 
       13500.00          0.4206          0.3846 
       13550.00          0.4056          0.4364 
       13600.00          0.4463          0.4882 
       13650.00          0.4072          0.4535 
       13700.00          0.4215          0.3821 
       13750.00          0.4248          0.4510 
       13800.00          0.4265          0.4171 
       13850.00          0.4031          0.4895 
       13900.00          0.3790          0.4711 
       13950.00          0.3512          0.4956 
       14000.00          0.4161          0.4317 
       14050.00          0.4271          0.4666 
       14100.00          0.4105          0.3885 
       14150.00          0.4433          0.4368 
       14200.00          0.4105          0.4333 
       14250.00          0.4048          0.4815 
       14300.00          0.4280          0.5183 
       14350.00          0.4389          0.5414 
       14400.00          0.4571          0.5532 
       14450.00          0.4549          0.5255 
       14500.00          0.4583          0.5505 
       14550.00          0.4399          0.4802 
       14600.00          0.4571          0.4298 
       14650.00          0.4309          0.3849 
       14700.00          0.4137          0.3576 
       14750.00          0.3805          0.4066 
       14800.00          0.4078          0.3903 
       14850.00          0.4390          0.3449 
       14900.00          0.4096          0.3815 
       14950.00          0.3682          0.3461 
       15000.00          0.3623          0.3436 
       15050.00          0.4074          0.3332 
       15100.00          0.3985          0.2982 
       15150.00          0.3672          0.3285 
       15200.00          0.3608          0.2962 
       15250.00          0.3681          0.3264 
       15300.00          0.3747          0.3069 
       15350.00          0.3555          0.2832 
       15400.00          0.4080          0.3709 
       15450.00          0.4129          0.4564 
       15500.00          0.4195          0.4462 
       15550.00          0.4346          0.4786 
       15600.00          0.4255          0.5830 
       15650.00          0.4588          0.5876 
       15700.00          0.3919          0.5604 
       15750.00          0.4524          0.6121 
       15800.00          0.4358          0.5890 
       15850.00          0.4042          0.5557 
       15900.00          0.4183          0.5196 
       15950.00          0.4308          0.5790 
       16000.00          0.4277          0.6244 
       16050.00          0.4967          0.7083 
       16100.00          0.4705          0.6412 
       16150.00          0.5081          0.6603 
       16200.00          0.4898          0.6851 
       16250.00          0.4905          0.6957 
       16300.00          0.4945          0.7048 
       16350.00          0.4662          0.6927 
       16400.00          0.4597          0.6831 
       16450.00          0.4388          0.6405 
       16500.00          0.4314          0.6600 
       16550.00          0.4440          0.6751 
       16600.00          0.4043          0.6436 
       16650.00          0.3933          0.6040 
       16700.00          0.4522          0.6610 
       16750.00          0.4440          0.7007 
       16800.00          0.4933          0.6648 
       16850.00          0.4362          0.5957 
       16900.00          0.4168          0.5476 
       16950.00          0.3858          0.5821 
       17000.00          0.3765          0.5367 
       17050.00          0.3954          0.4394 
       17100.00          0.3847          0.3711 
       17150.00          0.3519          0.3302 
       17200.00          0.3728          0.4148 
       17250.00          0.4110          0.3887 
       17300.00          0.4031          0.4145 
       17350.00          0.4004          0.4244 
       17400.00          0.4388          0.4682 
       17450.00          0.4018          0.4304 
       17500.00          0.3606          0.4007 
       17550.00          0.3187          0.4270 
       17600.00          0.3894          0.4620 
       17650.00          0.4322          0.4879 
       17700.00          0.4537          0.5024 
       17750.00          0.4314          0.5600 
       17800.00          0.4728          0.6358 
       17850.00          0.4414          0.5153 
       17900.00          0.4311          0.4380 
       17950.00          0.4399          0.4389 
       18000.00          0.4480          0.3589 
       18050.00          0.4158          0.3550 
       18100.00          0.4419          0.3058 
       18150.00          0.4020          0.3102 
       18200.00          0.4251          0.3698 
       18250.00          0.4314          0.3566 
       18300.00          0.4114          0.4229 
       18350.00          0.3889          0.4379 
       18400.00          0.3408          0.4019 
       18450.00          0.4177          0.4870 
       18500.00          0.4360          0.4208 
       18550.00          0.4594          0.4073 
       18600.00          0.4239          0.4157 
       18650.00          0.4137          0.4986 
       18700.00          0.4471          0.5300 
       18750.00          0.4130          0.4943 
       18800.00          0.4282          0.5774 
       18850.00          0.4255          0.5794 
       18900.00          0.3758          0.5557 
       18950.00          0.3695          0.5609 
       19000.00          0.4013          0.6085 
       19050.00          0.4349          0.5453 
       19100.00          0.4639          0.6152 
       19150.00          0.4600          0.6121 
       19200.00          0.4342          0.5877 
       19250.00          0.4618          0.6630 
       19300.00          0.4213          0.6351 
       19350.00          0.4169          0.6049 
       19400.00          0.4561          0.6247 
       19450.00          0.3920          0.5834 
       19500.00          0.3589          0.5346 
       19550.00          0.4152          0.5050 
       19600.00          0.4090          0.5423 
       19650.00          0.4366          0.5413 
       19700.00          0.3595          0.5177 
       19750.00          0.3844          0.4958 
       19800.00          0.4207          0.4097 
       19850.00          0.4251          0.3878 
       19900.00          0.4014          0.4293 
       19950.00          0.4511          0.4186 
       20000.00          0.4527          0.4505 
       20050.00          0.4189          0.4975 
       20100.00          0.4143          0.5377 
       20150.00          0.4207          0.4811 
       20200.00          0.3925          0.5617 
       20250.00          0.4068          0.5963 
       20300.00          0.4216          0.6300 
       20350.00          0.4326          0.6504 
       20400.00          0.4180          0.6292 
       20450.00          0.4109          0.6332 
       20500.00          0.5178          0.7221 
       20550.00          0.4155          0.5583 
       20600.00          0.3753          0.5800 
       20650.00          0.3759          0.5921 
       20700.00          0.3967          0.5912 
       20750.00          0.4680          0.6981 
       20800.00          0.4626          0.6470 
       20850.00          0.4568          0.6009 
       20900.00          0.4108          0.5450 
       20950.00          0.4081          0.4725 
       21000.00          0.3673          0.4485 
       21050.00          0.3621          0.4093 
       21100.00          0.3346          0.4383 
       21150.00          0.4027          0.4445 
       21200.00          0.4091          0.4351 
       21250.00          0.4377          0.5493 
       21300.00          0.4087          0.5217 
       21350.00          0.4551          0.5207 
       21400.00          0.4543          0.5293 
       21450.00          0.4535          0.5240 
       21500.00          0.4162          0.5020 
       21550.00          0.4252          0.5010 
       21600.00          0.3921          0.5552 
       21650.00          0.4119          0.4973 
       21700.00          0.4160          0.5500 
       21750.00          0.4320          0.4827 
       21800.00          0.4205          0.5296 
       21850.00          0.4339          0.6045 
       21900.00          0.4297          0.6439 
       21950.00          0.3988          0.5355 
       22000.00          0.3979          0.5185 
       22050.00          0.4334          0.5608 
       22100.00          0.3672          0.5306 
       22150.00          0.3686          0.4592 
       22200.00          0.3687          0.4624 
       22250.00          0.3783          0.5129 
       22300.00          0.3439          0.5265 
       22350.00          0.3240          0.4814 
       22400.00          0.3832          0.5223 
       22450.00          0.3911          0.5687 
       22500.00          0.4055          0.5645 
       22550.00          0.3516          0.6013 
       22600.00          0.4259          0.6498 
       22650.00          0.4174          0.6164 
       22700.00          0.4477          0.6367 
       22750.00          0.5387          0.7384 
       22800.00          0.4868          0.7199 
       22850.00          0.5004          0.6815 
       22900.00          0.5061          0.6123 
       22950.00          0.4459          0.6130 
       23000.00          0.3873          0.5565 
       23050.00          0.4263          0.5401 
       23100.00          0.4270          0.5835 
       23150.00          0.4806          0.6043 
       23200.00          0.4835          0.6426 
       23250.00          0.4467          0.6120 
       23300.00          0.4759          0.6321 
       23350.00          0.4366          0.5790 
       23400.00          0.4528          0.5747 
       23450.00          0.3932          0.5826 
       23500.00          0.3856          0.5261 
       23550.00          0.3481          0.5079 
       23600.00          0.4211          0.5106 
       23650.00          0.3958          0.5491 
       23700.00          0.3798          0.5277 
       23750.00          0.4071          0.4848 
       23800.00          0.4382          0.5383 
       23850.00          0.4519          0.6155 
       23900.00          0.4072          0.5976 
       23950.00          0.3943          0.5677 
       24000.00          0.4219          0.4764 
       24050.00          0.3634          0.4119 
       24100.00          0.3950          0.3936 
       24150.00          0.4446          0.3283 
       24200.00          0.4732          0.2892 
       24250.00          0.5130          0.2955 
       24300.00          0.4963          0.3211 
       24350.00          0.4903          0.3374 
       24400.00          0.5533          0.3001 
       24450.00          0.4870          0.3238 
       24500.00          0.5180          0.3356 
       24550.00          0.5135          0.3097 
       24600.00          0.4454          0.3106 
       24650.00          0.4395          0.3699 
       24700.00          0.4280          0.3333 
       24750.00          0.4053          0.3618 
       24800.00          0.4035          0.3511 
       24850.00          0.4059          0.3721 
       24900.00          0.4037          0.3716 
       24950.00          0.3503          0.4092 
       25000.00          0.4368          0.3904 
       25050.00          0.3814          0.3563 
       25100.00          0.3426          0.4473 
       25150.00          0.2996          0.4877 
       25200.00          0.3634          0.4264 
       25250.00          0.4123          0.3828 
       25300.00          0.3729          0.4741 
       25350.00          0.3541          0.4831 
       25400.00          0.3740          0.4553 
       25450.00          0.3541          0.4331 
       25500.00          0.3338          0.4715 
       25550.00          0.3971          0.4288 
       25600.00          0.3898          0.4482 
       25650.00          0.3746          0.5776 
       25700.00          0.4110          0.5281 
       25750.00          0.4055          0.5445 
       25800.00          0.4281          0.5816 
       25850.00          0.3781          0.5616 
       25900.00          0.3965          0.5045 
       25950.00          0.4048          0.4685 
       26000.00          0.4671          0.4008 
       26050.00          0.4651          0.3525 
       26100.00          0.4905          0.3368 
       26150.00          0.4877          0.3291 
       26200.00          0.4937          0.3945 
       26250.00          0.4897          0.3087 
       26300.00          0.4873          0.2600 
       26350.00          0.4687          0.3828 
       26400.00          0.4671          0.4364 
       26450.00          0.4873          0.3827 
       26500.00          0.4924          0.4439 
       26550.00          0.4320          0.4218 
       26600.00          0.4418          0.3892 
       26650.00          0.4367          0.5095 
       26700.00          0.4086          0.5583 
       26750.00          0.4022          0.5125 
       26800.00          0.4246          0.5161 
       26850.00          0.3593          0.5297 
       26900.00          0.3926          0.5530 
       26950.00          0.3988          0.4634 
       27000.00          0.3563          0.4187 
       27050.00          0.3762          0.5047 
       27100.00          0.3975          0.4451 
       27150.00          0.4046          0.3939 
       27200.00          0.3932          0.4482 
       27250.00          0.3849          0.3805 
       27300.00          0.3325          0.4604 
       27350.00          0.3186          0.4953 
       27400.00          0.3474          0.5145 
       27450.00          0.4052          0.5875 
       27500.00          0.3786          0.4920 
       27550.00          0.3987          0.4434 
       27600.00          0.3753          0.4375 
       27650.00          0.3724          0.4308 
       27700.00          0.3837          0.4519 
       27750.00          0.3843          0.4017 
       27800.00          0.4064          0.4420 
       27850.00          0.4109          0.4343 
       27900.00          0.3797          0.4243 
       27950.00          0.3981          0.4748 
       28000.00          0.4151          0.4319 
       28050.00          0.3919          0.5219 
       28100.00          0.4095          0.4988 
       28150.00          0.3923          0.4983 
       28200.00          0.3607          0.5169 
       28250.00          0.3822          0.4857 
       28300.00          0.3706          0.4640 
       28350.00          0.3755          0.4474 
       28400.00          0.3913          0.4190 
       28450.00          0.3848          0.4446 
       28500.00          0.4628          0.5628 
       28550.00          0.3786          0.5023 
       28600.00          0.4017          0.5101 
       28650.00          0.4630          0.5336 
       28700.00          0.4276          0.4242 
       28750.00          0.4193          0.3935 
       28800.00          0.4534          0.3809 
       28850.00          0.4808          0.3906 
       28900.00          0.4420          0.3084 
       28950.00          0.4404          0.2912 
       29000.00          0.5014          0.2639 
       29050.00          0.4814          0.3415 
       29100.00          0.4666          0.3807 
       29150.00          0.4574          0.4092 
       29200.00          0.4390          0.4587 
       29250.00          0.4317          0.4464 
       29300.00          0.4014          0.3973 
       29350.00          0.4237          0.4639 
       29400.00          0.4585          0.5631 
       29450.00          0.4125          0.4725 
       29500.00          0.4027          0.3890 
       29550.00          0.3849          0.4733 
       29600.00          0.3576          0.5520 
       29650.00          0.3895          0.5694 
       29700.00          0.3865          0.5500 
       29750.00          0.3907          0.5734 
       29800.00          0.4366          0.5028 
       29850.00          0.3978          0.4751 
       29900.00          0.4033          0.5353 
       29950.00          0.3975          0.5184 
       30000.00          0.4250          0.5416 
       30050.00          0.4311          0.4974 
       30100.00          0.4194          0.4591 
       30150.00          0.4453          0.4621 
       30200.00          0.4038          0.4027 
       30250.00          0.4175          0.4763 
       30300.00          0.4189          0.5471 
       30350.00          0.3669          0.4932 
       30400.00          0.4372          0.5314 
       30450.00          0.4077          0.5705 
       30500.00          0.3535          0.5879 
       30550.00          0.3991          0.6229 
       30600.00          0.4587          0.6249 
       30650.00          0.4967          0.6763 
       30700.00          0.4634          0.6741 
       30750.00          0.5167          0.7331 
       30800.00          0.5303          0.7291 
       30850.00          0.5084          0.7157 
       30900.00          0.4990          0.6692 
       30950.00          0.4886          0.6484 
       31000.00          0.4204          0.5773 
       31050.00          0.4127          0.6137 
       31100.00          0.3951          0.5843 
       31150.00          0.4153          0.5262 
       31200.00          0.4023          0.4149 
       31250.00          0.3714          0.5378 
       31300.00          0.3510          0.4803 
       31350.00          0.3623          0.4994 
       31400.00          0.3482          0.4987 
       31450.00          0.3431          0.5156 
       31500.00          0.3378          0.4739 
       31550.00          0.3438          0.4325 
       31600.00          0.3373          0.4720 
       31650.00          0.3297          0.4749 
       31700.00          0.3557          0.4521 
       31750.00          0.3753          0.4544 
       31800.00          0.3627          0.4228 
       31850.00          0.3885          0.3833 
       31900.00          0.3564          0.4179 
       31950.00          0.3833          0.4438 
       32000.00          0.4312          0.5545 
       32050.00          0.4313          0.5178 
       32100.00          0.4358          0.4040 
       32150.00          0.4149          0.5046 
       32200.00          0.4031          0.4641 
       32250.00          0.4469          0.4556 
       32300.00          0.4361          0.5094 
       32350.00          0.3692          0.4729 
       32400.00          0.2879          0.3925 
       32450.00          0.3621          0.3710 
       32500.00          0.3213          0.3976 
       32550.00          0.3383          0.4507 
       32600.00          0.3917          0.4434 
       32650.00          0.3463          0.4015 
       32700.00          0.3600          0.4136 
       32750.00          0.3317          0.4217 
       32800.00          0.3795          0.3391 
       32850.00          0.4020          0.3546 
       32900.00          0.3841          0.4539 
       32950.00          0.3635          0.4675 
       33000.00          0.3778          0.4285 
       33050.00          0.4192          0.4147 
       33100.00          0.3634          0.4066 
       33150.00          0.3563          0.4021 
       33200.00          0.4318          0.3623 
       33250.00          0.4560          0.3653 
       33300.00          0.4305          0.3437 
       33350.00          0.4481          0.3769 
       33400.00          0.4454          0.4078 
       33450.00          0.4188          0.4481 
       33500.00          0.4239          0.3592 
       33550.00          0.3754          0.4685 
       33600.00          0.3435          0.4888 
       33650.00          0.3648          0.5297 
       33700.00          0.4004          0.4469 
       33750.00          0.4073          0.5086 
       33800.00          0.3885          0.5154 
       33850.00          0.3643          0.4661 
       33900.00          0.3553          0.4606 
       33950.00          0.3490          0.4655 
       34000.00          0.3884          0.4453 
       34050.00          0.4289          0.4243 
       34100.00          0.4377          0.4371 
       34150.00          0.4248          0.4008 
       34200.00          0.4414          0.4032 
       34250.00          0.4348          0.4423 
       34300.00          0.3908          0.4131 
       34350.00          0.4029          0.4415 
       34400.00          0.4351          0.5355 
       34450.00          0.4173          0.5442 
       34500.00          0.4057          0.6008 
       34550.00          0.3931          0.6250 
       34600.00          0.4317          0.6694 
       34650.00          0.3838          0.5870 
       34700.00          0.3534          0.5854 
       34750.00          0.4176          0.5137 
       34800.00          0.3891          0.4884 
       34850.00          0.3844          0.4981 
       34900.00          0.4056          0.4112 
       34950.00          0.4005          0.4556 
       35000.00          0.4214          0.4009 
       35050.00          0.4060          0.4767 
       35100.00          0.4115          0.5015 
       35150.00          0.3833          0.4850 
       35200.00          0.3835          0.4566 
       35250.00          0.4228          0.4828 
       35300.00          0.3910          0.4435 
       35350.00          0.4057          0.3627 
       35400.00          0.4278          0.4399 
       35450.00          0.3590          0.4887 
       35500.00          0.4054          0.5010 
       35550.00          0.3873          0.4677 
       35600.00          0.4351          0.4429 
       35650.00          0.4273          0.3625 
       35700.00          0.4324          0.3690 
       35750.00          0.4221          0.3800 
       35800.00          0.4120          0.4737 
       35850.00          0.4176          0.4070 
       35900.00          0.3802          0.3480 
       35950.00          0.4157          0.3873 
       36000.00          0.4269          0.4276 
       36050.00          0.3985          0.5129 
       36100.00          0.3914          0.5046 
       36150.00          0.3889          0.5765 
       36200.00          0.4125          0.5574 
       36250.00          0.4092          0.5309 
       36300.00          0.4057          0.4507 
       36350.00          0.4608          0.5678 
       36400.00          0.4042          0.4173 
       36450.00          0.4294          0.4184 
       36500.00          0.3751          0.4313 
       36550.00          0.3587          0.4209 
       36600.00          0.3870          0.3510 
       36650.00          0.4177          0.3995 
       36700.00          0.3835          0.3825 
       36750.00          0.4186          0.3721 
       36800.00          0.3755          0.4505 
       36850.00          0.4178          0.4683 
       36900.00          0.3631          0.4827 
       36950.00          0.4005          0.5434 
       37000.00          0.4209          0.5907 
       37050.00          0.4631          0.6522 
       37100.00          0.4827          0.6623 
       37150.00          0.4992          0.7189 
       37200.00          0.4431          0.6716 
       37250.00          0.4513          0.6577 
       37300.00          0.4682          0.6709 
       37350.00          0.4937          0.6911 
       37400.00          0.4265          0.6647 
       37450.00          0.4658          0.6023 
       37500.00          0.4515          0.5256 
       37550.00          0.4166          0.5048 
       37600.00          0.4173          0.5256 
       37650.00          0.4051          0.4457 
       37700.00          0.4645          0.4942 
       37750.00          0.4579          0.4469 
       37800.00          0.4830          0.4874 
       37850.00          0.4156          0.4833 
       37900.00          0.4265          0.4834 
       37950.00          0.4262          0.5009 
       38000.00          0.4306          0.4938 
       38050.00          0.4172          0.4849 
       38100.00          0.4366          0.4953 
       38150.00          0.3955          0.5232 
       38200.00          0.4331          0.5628 
       38250.00          0.4548          0.6174 
       38300.00          0.4028          0.5355 
       38350.00          0.4115          0.6279 
       38400.00          0.4151          0.6578 
       38450.00          0.3844          0.5931 
       38500.00          0.3910          0.5846 
       38550.00          0.4033          0.5981 
       38600.00          0.3984          0.6121 
       38650.00          0.4276          0.6776 
       38700.00          0.4753          0.6937 
       38750.00          0.4431          0.6124 
       38800.00          0.4282          0.5814 
       38850.00          0.4721          0.5964 
       38900.00          0.4155          0.5585 
       38950.00          0.4325          0.5951 
       39000.00          0.4916          0.6102 
       39050.00          0.4544          0.5126 
       39100.00          0.4287          0.4693 
       39150.00          0.4271          0.5106 
       39200.00          0.4155          0.5347 
       39250.00          0.4832          0.6689 
       39300.00          0.4961          0.6829 
       39350.00          0.4552          0.6107 
       39400.00          0.4057          0.5992 
       39450.00          0.4010          0.5560 
       39500.00          0.3847          0.4812 
       39550.00          0.3721          0.4365 
       39600.00          0.4100          0.4938 
       39650.00          0.3958          0.4896 
       39700.00          0.4300          0.4860 
       39750.00          0.4407          0.4526 
       39800.00          0.4440          0.3876 
       39850.00          0.4756          0.3481 
       39900.00          0.4128          0.3514 
       39950.00          0.4368          0.3564 
       40000.00          0.4185          0.3053 
       40050.00          0.4467          0.3260 
       40100.00          0.4483          0.3722 
       40150.00          0.3676          0.4335 
       40200.00          0.3912          0.4732 
       40250.00          0.3485          0.4338 
       40300.00          0.3590          0.4537 
       40350.00          0.3748          0.4938 
       40400.00          0.4236          0.4846 
       40450.00          0.3891          0.4810 
       40500.00          0.4101          0.5229 
       40550.00          0.3852          0.5101 
       40600.00          0.3737          0.4057 
       40650.00          0.3703          0.3810 
       40700.00          0.3952          0.5186 
       40750.00          0.3935          0.5564 
       40800.00          0.4079          0.6361 
       40850.00          0.3882          0.6066 
       40900.00          0.3933          0.5598 
       40950.00          0.3563          0.5132 
       41000.00          0.3730          0.5247 
       41050.00          0.3584          0.5358 
       41100.00          0.3465          0.5414 
       41150.00          0.4045          0.5505 
       41200.00          0.3946          0.5395 
       41250.00          0.4130          0.5487 
       41300.00          0.4081          0.5700 
       41350.00          0.3727          0.5739 
       41400.00          0.4374          0.6472 
       41450.00          0.3823          0.5895 
       41500.00          0.4103          0.5515 
       41550.00          0.4219          0.5962 
       41600.00          0.4208          0.6146 
       41650.00          0.3223          0.5670 
       41700.00          0.3734          0.5002 
       41750.00          0.4093          0.5476 
       41800.00          0.4058          0.4492 
       41850.00          0.3639          0.4934 
       41900.00          0.3733          0.4978 
       41950.00          0.3797          0.4943 
       42000.00          0.3876          0.5051 
       42050.00          0.3624          0.5738 
       42100.00          0.3678          0.5453 
       42150.00          0.4035          0.5775 
       42200.00          0.3706          0.5104 
       42250.00          0.3655          0.5490 
       42300.00          0.3654          0.5442 
       42350.00          0.4228          0.5636 
       42400.00          0.4027          0.5482 
       42450.00          0.4145          0.4652 
       42500.00          0.4204          0.4556 
       42550.00          0.3912          0.4092 
       42600.00          0.4426          0.4207 
       42650.00          0.4130          0.4023 
       42700.00          0.4248          0.5033 
       42750.00          0.4065          0.4630 
       42800.00          0.3924          0.4278 
       42850.00          0.3789          0.4206 
       42900.00          0.3473          0.4951 
       42950.00          0.3594          0.5040 
       43000.00          0.3625          0.4906 
       43050.00          0.3570          0.4915 
       43100.00          0.3491          0.4716 
       43150.00          0.3348          0.4468 
       43200.00          0.3942          0.4774 
       43250.00          0.3681          0.4446 
       43300.00          0.3690          0.4597 
       43350.00          0.4194          0.4521 
       43400.00          0.3884          0.4926 
       43450.00          0.3760          0.4557 
       43500.00          0.3802          0.4634 
       43550.00          0.4002          0.4782 
       43600.00          0.4487          0.5311 
       43650.00          0.3707          0.5679 
       43700.00          0.3530          0.5793 
       43750.00          0.3528          0.6079 
       43800.00          0.3438          0.5727 
       43850.00          0.3288          0.5480 
       43900.00          0.3400          0.4773 
       43950.00          0.3688          0.5488 
       44000.00          0.4100          0.5364 
       44050.00          0.4443          0.5033 
       44100.00          0.3966          0.5421 
       44150.00          0.3762          0.5370 
       44200.00          0.4250          0.5536 
       44250.00          0.4219          0.5956 
       44300.00          0.3970          0.5920 
       44350.00          0.3162          0.4710 
       44400.00          0.3412          0.4860 
       44450.00          0.3761          0.4186 
       44500.00          0.3397          0.4145 
       44550.00          0.2841          0.4652 
       44600.00          0.3174          0.5189 
       44650.00          0.3046          0.4837 
       44700.00          0.3558          0.4537 
       44750.00          0.3270          0.3679 
       44800.00          0.3896          0.3205 
       44850.00          0.3499          0.3409 
       44900.00          0.3275          0.4194 
       44950.00          0.3666          0.3544 
       45000.00          0.3288          0.4202 
       45050.00          0.3668          0.4030 
       45100.00          0.3429          0.3138 
       45150.00          0.3797          0.3277 
       45200.00          0.3291          0.4207 
       45250.00          0.3771          0.3205 
       45300.00          0.3841          0.3676 
       45350.00          0.3895          0.3397 
       45400.00          0.3772          0.4014 
       45450.00          0.3772          0.3780 
       45500.00          0.3931          0.3409 
       45550.00          0.3847          0.4069 
       45600.00          0.3926          0.4040 
       45650.00          0.3971          0.4061 
       45700.00          0.4459          0.3076 
       45750.00          0.4118          0.2546 
       45800.00          0.4405          0.2537 
       45850.00          0.3991          0.3754 
       45900.00          0.4041          0.4044 
       45950.00          0.3834          0.4010 
       46000.00          0.3885          0.4031 
       46050.00          0.4000          0.4260 
       46100.00          0.3499          0.4709 
       46150.00          0.3854          0.5304 
       46200.00          0.3844          0.4777 
       46250.00          0.4142          0.4751 
       46300.00          0.4047          0.4474 
       46350.00          0.4429          0.5284 
       46400.00          0.4693          0.6170 
       46450.00          0.4501          0.5611 
       46500.00          0.4409          0.5468 
       46550.00          0.4416          0.4098 
       46600.00          0.3862          0.4168 
       46650.00          0.4215          0.4389 
       46700.00          0.4012          0.4963 
       46750.00          0.4204          0.4532 
       46800.00          0.3451          0.4773 
       46850.00          0.3328          0.4443 
       46900.00          0.3262          0.4365 
       46950.00          0.3249          0.4065 
       47000.00          0.3105          0.3935 
       47050.00          0.3271          0.4048 
       47100.00          0.3628          0.3801 
       47150.00          0.3412          0.4013 
       47200.00          0.3447          0.4137 
       47250.00          0.3307          0.5372 
       47300.00          0.3692          0.5362 
       47350.00          0.3740          0.4810 
       47400.00          0.4112          0.4949 
       47450.00          0.4060          0.5181 
       47500.00          0.3811          0.4620 
       47550.00          0.4195          0.4788 
       47600.00          0.3983          0.5323 
       47650.00          0.3748          0.5523 
       47700.00          0.4094          0.5606 
       47750.00          0.4081          0.5511 
       47800.00          0.4590          0.6889 
       47850.00          0.4888          0.6608 
       47900.00          0.4001          0.6078 
       47950.00          0.4453          0.6299 
       48000.00          0.3835          0.5899 
       48050.00          0.4447          0.5141 
       48100.00          0.4164          0.4532 
       48150.00          0.4397          0.4719 
       48200.00          0.4454          0.5128 
       48250.00          0.4271          0.5196 
       48300.00          0.4183          0.5565 
       48350.00          0.3714          0.5501 
       48400.00          0.3907          0.5819 
       48450.00          0.3756          0.5781 
       48500.00          0.3921          0.5972 
       48550.00          0.4013          0.4959 
       48600.00          0.3834          0.4736 
       48650.00          0.3907          0.4506 
       48700.00          0.3481          0.3923 
       48750.00          0.2952          0.4849 
       48800.00          0.3431          0.4662 
       48850.00          0.4204          0.6408 
       48900.00          0.3847          0.6215 
       48950.00          0.3229          0.5559 
       49000.00          0.3058          0.5031 
       49050.00          0.3303          0.4650 
       49100.00          0.3708          0.3899 
       49150.00          0.3835          0.3836 
       49200.00          0.3956          0.5540 
       49250.00          0.4306          0.5098 
       49300.00          0.4450          0.5883 
       49350.00          0.4433          0.5018 
       49400.00          0.4416          0.5935 
       49450.00          0.4162          0.5902 
       49500.00          0.3885          0.5286 
       49550.00          0.3880          0.4511 
       49600.00          0.3917          0.3888 
       49650.00          0.3752          0.3872 
       49700.00          0.3866          0.3488 
       49750.00          0.4038          0.3520 
       49800.00          0.4069          0.3345 
       49850.00          0.4242          0.4212 
       49900.00          0.3950          0.4902 
       49950.00          0.3754          0.5523 
       50000.00          0.3880          0.5377 
       50050.00          0.4329          0.5679 
       50100.00          0.4041          0.5507 
       50150.00          0.4264          0.6431 
       50200.00          0.4175          0.6147 
       50250.00          0.4505          0.6401 
       50300.00          0.4191          0.5852 
       50350.00          0.4677          0.6249 
       50400.00          0.4421          0.5725 
       50450.00          0.4347          0.5491 
       50500.00          0.4043          0.5598 
       50550.00          0.4795          0.5904 
       50600.00          0.4505          0.6363 
       50650.00          0.4832          0.6256 
       50700.00          0.4182          0.5209 
       50750.00          0.3952          0.4829 
       50800.00          0.3970          0.5121 
       50850.00          0.4153          0.4643 
       50900.00          0.3800          0.4431 
       50950.00          0.4141          0.4516 
       51000.00          0.4015          0.4556 
       51050.00          0.4004          0.4417 
       51100.00          0.3692          0.4432 
       51150.00          0.3900          0.4371 
       51200.00          0.3812          0.4560 
       51250.00          0.4062          0.3851 
       51300.00          0.4254          0.3896 
       51350.00          0.4277          0.3860 
       51400.00          0.4258          0.3758 
       51450.00          0.4020          0.4324 
       51500.00          0.4186          0.4460 
       51550.00          0.3185          0.4953 
       51600.00          0.3952          0.4221 
       51650.00          0.4127          0.3887 
       51700.00          0.4296          0.3381 
       51750.00          0.4142          0.4290 
       51800.00          0.3893          0.3792 
       51850.00          0.3598          0.3980 
       51900.00          0.3751          0.4562 
       51950.00          0.3900          0.3926 
       52000.00          0.4045          0.3769 
       52050.00          0.3803          0.4122 
       52100.00          0.4117          0.4094 
       52150.00          0.4569          0.3977 
       52200.00          0.4307          0.4523 
       52250.00          0.4173          0.4563 
       52300.00          0.4423          0.4636 
       52350.00          0.4385          0.4516 
       52400.00          0.4518          0.4923 
       52450.00          0.3900          0.4629 
       52500.00          0.4274          0.4354 
       52550.00          0.4706          0.3507 
       52600.00          0.4474          0.3086 
       52650.00          0.4312          0.3138 
       52700.00          0.4197          0.2432 
       52750.00          0.4327          0.2633 
       52800.00          0.4052          0.3619 
       52850.00          0.3980          0.3567 
       52900.00          0.4138          0.3402 
       52950.00          0.3216          0.3880 
       53000.00          0.3582          0.4084 
       53050.00          0.3948          0.4656 
       53100.00          0.3401          0.4660 
       53150.00          0.3375          0.4539 
       53200.00          0.3486          0.3785 
       53250.00          0.3524          0.3991 
       53300.00          0.3274          0.4250 
       53350.00          0.3478          0.4414 
       53400.00          0.3706          0.3866 
       53450.00          0.3991          0.3592 
       53500.00          0.3942          0.4005 
       53550.00          0.4267          0.3921 
       53600.00          0.4032          0.3630 
       53650.00          0.4086          0.3594 
       53700.00          0.4436          0.3716 
       53750.00          0.4401          0.3850 
       53800.00          0.4514          0.4477 
       53850.00          0.4219          0.4569 
       53900.00          0.4234          0.5313 
       53950.00          0.4148          0.5117 
       54000.00          0.4419          0.5373 
       54050.00          0.4251          0.4832 
       54100.00          0.4206          0.5382 
       54150.00          0.3817          0.5753 
       54200.00          0.4475          0.6115 
       54250.00          0.4118          0.6071 
       54300.00          0.4411          0.6242 
       54350.00          0.4199          0.5991 
       54400.00          0.4384          0.5830 
       54450.00          0.4614          0.6408 
       54500.00          0.5004          0.6242 
       54550.00          0.4685          0.6402 
       54600.00          0.4818          0.6651 
       54650.00          0.4144          0.5645 
       54700.00          0.4087          0.6015 
       54750.00          0.3643          0.6055 
       54800.00          0.4253          0.6136 
       54850.00          0.4237          0.6048 
       54900.00          0.4081          0.6122 
       54950.00          0.3853          0.5273 
       55000.00          0.3923          0.6326 
       55050.00          0.3643          0.6522 
       55100.00          0.3252          0.6263 
       55150.00          0.3179          0.5612 
       55200.00          0.3251          0.5364 
       55250.00          0.3678          0.5004 
       55300.00          0.3115          0.4882 
       55350.00          0.3200          0.4307 
       55400.00          0.3339          0.4448 
       55450.00          0.3487          0.3865 
       55500.00          0.3707          0.4466 
       55550.00          0.4135          0.4373 
       55600.00          0.4220          0.4342 
       55650.00          0.4044          0.4812 
       55700.00          0.3961          0.4476 
       55750.00          0.3900          0.4288 
       55800.00          0.4074          0.4836 
       55850.00          0.4185          0.4884 
       55900.00          0.4206          0.5444 
       55950.00          0.4574          0.6643 
       56000.00          0.4372          0.6294 
       56050.00          0.4219          0.6615 
       56100.00          0.4408          0.6159 
       56150.00          0.3939          0.5138 
       56200.00          0.4076          0.5245 
       56250.00          0.4160          0.5838 
       56300.00          0.4079          0.6359 
       56350.00          0.4463          0.6599 
       56400.00          0.4327          0.6715 
       56450.00          0.4586          0.6424 
       56500.00          0.3921          0.6107 
       56550.00          0.3991          0.6591 
       56600.00          0.4557          0.6930 
       56650.00          0.4174          0.6477 
       56700.00          0.4066          0.5727 
       56750.00          0.3550          0.4202 
       56800.00          0.3671          0.4488 
       56850.00          0.3619          0.5169 
       56900.00          0.3110          0.4899 
       56950.00          0.2971          0.4686 
       57000.00          0.3733          0.5276 
       57050.00          0.3497          0.5488 
       57100.00          0.3356          0.5094 
       57150.00          0.3795          0.6077 
       57200.00          0.3928          0.6122 
       57250.00          0.4332          0.6106 
       57300.00          0.3794          0.5267 
       57350.00          0.4189          0.5130 
       57400.00          0.3583          0.5336 
       57450.00          0.4046          0.5383 
       57500.00          0.4277          0.5539 
       57550.00          0.4151          0.5146 
       57600.00          0.4216          0.5867 
       57650.00          0.4550          0.6851 
       57700.00          0.4891          0.6598 
       57750.00          0.4767          0.6667 
       57800.00          0.4694          0.6051 
       57850.00          0.4545          0.6251 
       57900.00          0.4326          0.6112 
       57950.00          0.4539          0.6613 
       58000.00          0.4669          0.6096 
       58050.00          0.3862          0.5602 
       58100.00          0.4561          0.6623 
       58150.00          0.4798          0.6877 
       58200.00          0.4949          0.6595 
       58250.00          0.4335          0.6284 
       58300.00          0.4647          0.6761 
       58350.00          0.4806          0.6534 
       58400.00          0.4388          0.6278 
       58450.00          0.4873          0.7172 
       58500.00          0.4878          0.7001 
       58550.00          0.4547          0.7034 
       58600.00          0.4882          0.6925 
       58650.00          0.3851          0.6197 
       58700.00          0.3916          0.5988 
       58750.00          0.4314          0.6482 
       58800.00          0.4115          0.6494 
       58850.00          0.3955          0.6525 
       58900.00          0.3941          0.5789 
       58950.00          0.3665          0.5198 
       59000.00          0.3078          0.4595 
       59050.00          0.3101          0.5160 
       59100.00          0.3970          0.6162 
       59150.00          0.3903          0.5623 
       59200.00          0.4410          0.6485 
       59250.00          0.4025          0.5881 
       59300.00          0.3705          0.5081 
       59350.00          0.3792          0.4227 
       59400.00          0.4063          0.3615 
       59450.00          0.3464          0.4910 
       59500.00          0.4028          0.5151 
       59550.00          0.3723          0.4678 
       59600.00          0.3606          0.4123 
       59650.00          0.3843          0.4846 
       59700.00          0.4031          0.4806 
       59750.00          0.4335          0.4892 
       59800.00          0.4151          0.5804 
       59850.00          0.4236          0.5435 
       59900.00          0.4196          0.5580 
       59950.00          0.4531          0.6243 
       60000.00          0.4482          0.6560 
       60050.00          0.4167          0.5878 
       60100.00          0.4467          0.6128 
       60150.00          0.4154          0.5825 
       60200.00          0.3992          0.5417 
       60250.00          0.4213          0.4919 
       60300.00          0.4106          0.4614 
       60350.00          0.4041          0.5238 
       60400.00          0.3928          0.4749 
       60450.00          0.3423          0.4394 
       60500.00          0.3394          0.4684 
       60550.00          0.3576          0.4587 
       60600.00          0.3769          0.3956 
       60650.00          0.3927          0.4400 
       60700.00          0.4173          0.4910 
       60750.00          0.4024          0.4645 
       60800.00          0.4045          0.4329 
       60850.00          0.4238          0.3887 
       60900.00          0.4330          0.3659 
       60950.00          0.4058          0.4279 
       61000.00          0.3958          0.3881 
       61050.00          0.3936          0.3918 
       61100.00          0.4064          0.3596 
       61150.00          0.4142          0.3505 
       61200.00          0.3791          0.3873 
       61250.00          0.3545          0.4365 
       61300.00          0.4064          0.5691 
       61350.00          0.4143          0.5728 
       61400.00          0.3360          0.5049 
       61450.00          0.3953          0.5650 
       61500.00          0.3850          0.5139 
       61550.00          0.4285          0.5760 
       61600.00          0.4170          0.5215 
       61650.00          0.4375          0.4781 
       61700.00          0.4287          0.4285 
       61750.00          0.4314          0.4149 
       61800.00          0.4330          0.3340 
       61850.00          0.4249          0.4214 
       61900.00          0.4272          0.4224 
       61950.00          0.4492          0.3668 
       62000.00          0.4301          0.4059 
       62050.00          0.4433          0.4015 
       62100.00          0.4205          0.3694 
       62150.00          0.4236          0.3881 
       62200.00          0.4230          0.3693 
       62250.00          0.3444          0.4098 
       62300.00          0.3805          0.4607 
       62350.00          0.3543          0.4965 
       62400.00          0.3673          0.5677 
       62450.00          0.3972          0.5099 
       62500.00          0.4005          0.4855 
       62550.00          0.4017          0.4430 
       62600.00          0.4226          0.4584 
       62650.00          0.4218          0.5424 
       62700.00          0.3599          0.4381 
       62750.00          0.3536          0.4551 
       62800.00          0.3621          0.6132 
       62850.00          0.3564          0.5520 
       62900.00          0.3547          0.6023 
       62950.00          0.3792          0.6292 
       63000.00          0.3464          0.5617 
       63050.00          0.3991          0.6500 
       63100.00          0.4150          0.6579 
       63150.00          0.3962          0.6335 
       63200.00          0.3694          0.5856 
       63250.00          0.4241          0.6431 
       63300.00          0.3961          0.5722 
       63350.00          0.3655          0.4789 
       63400.00          0.3613          0.5367 
       63450.00          0.3324          0.5014 
       63500.00          0.4133          0.5040 
       63550.00          0.3711          0.4649 
       63600.00          0.3906          0.3707 
       63650.00          0.3862          0.3536 
       63700.00          0.3658          0.2869 
       63750.00          0.3861          0.3339 
       63800.00          0.3822          0.2982 
       63850.00          0.3567          0.3541 
       63900.00          0.3756          0.2847 
       63950.00          0.3656          0.2864 
       64000.00          0.3555          0.3875 
       64050.00          0.2995          0.4333 
       64100.00          0.3124          0.4971 
       64150.00          0.3469          0.4917 
       64200.00          0.3420          0.4817 
       64250.00          0.3455          0.5400 
       64300.00          0.3424          0.5798 
       64350.00          0.3563          0.5711 
       64400.00          0.3742          0.5436 
       64450.00          0.3180          0.4907 
       64500.00          0.3183          0.5341 
       64550.00          0.3929          0.5476 
       64600.00          0.4068          0.4315 
       64650.00          0.3997          0.4574 
       64700.00          0.4141          0.4961 
       64750.00          0.4109          0.5428 
       64800.00          0.4107          0.5113 
       64850.00          0.3709          0.5311 
       64900.00          0.3883          0.4801 
       64950.00          0.3928          0.4657 
       65000.00          0.4355          0.5435 
       65050.00          0.4506          0.5530 
       65100.00          0.4790          0.5767 
       65150.00          0.4090          0.4605 
       65200.00          0.4351          0.3085 
       65250.00          0.4334          0.3647 
       65300.00          0.4077          0.5422 
       65350.00          0.3868          0.5847 
       65400.00          0.3945          0.5738 
       65450.00          0.3311          0.5166 
       65500.00          0.3535          0.5382 
       65550.00          0.3974          0.5934 
       65600.00          0.4466          0.6350 
       65650.00          0.4791          0.6991 
       65700.00          0.4356          0.5942 
       65750.00          0.4756          0.6083 
       65800.00          0.3775          0.6085 
       65850.00          0.4103          0.6355 
       65900.00          0.3796          0.6138 
       65950.00          0.3266          0.5365 
       66000.00          0.3821          0.5937 
       66050.00          0.3566          0.5376 
       66100.00          0.4055          0.5217 
       66150.00          0.4599          0.6358 
       66200.00          0.3640          0.5320 
       66250.00          0.3372          0.5251 
       66300.00          0.4217          0.5679 
       66350.00          0.3415          0.4574 
       66400.00          0.3515          0.4520 
       66450.00          0.3185          0.4644 
       66500.00          0.3422          0.3591 
       66550.00          0.3158          0.4098 
       66600.00          0.3336          0.3899 
       66650.00          0.3498          0.3843 
       66700.00          0.3772          0.4602 
       66750.00          0.3639          0.4477 
       66800.00          0.3698          0.4191 
       66850.00          0.3791          0.4097 
       66900.00          0.3343          0.4691 
       66950.00          0.3135          0.4577 
       67000.00          0.2964          0.4242 
       67050.00          0.3115          0.4041 
       67100.00          0.3093          0.4109 
       67150.00          0.3338          0.3026 
       67200.00          0.3654          0.2651 
       67250.00          0.3812          0.2637 
       67300.00          0.3377          0.3714 
       67350.00          0.3442          0.3541 
       67400.00          0.2817          0.4220 
       67450.00          0.3253          0.4477 
       67500.00          0.3213          0.4368 
       67550.00          0.3052          0.3865 
       67600.00          0.3248          0.4013 
       67650.00          0.3409          0.4282 
       67700.00          0.3231          0.4448 
       67750.00          0.3456          0.4775 
       67800.00          0.3410          0.4675 
       67850.00          0.3346          0.4159 
       67900.00          0.3637          0.4003 
       67950.00          0.3357          0.3896 
       68000.00          0.3521          0.4226 
       68050.00          0.3035          0.4239 
       68100.00          0.2964          0.4195 
       68150.00          0.2996          0.4185 
       68200.00          0.2922          0.4050 
       68250.00          0.3014          0.4783 
       68300.00          0.3629          0.4326 
       68350.00          0.3709          0.3755 
       68400.00          0.3647          0.4088 
       68450.00          0.3915          0.3949 
       68500.00          0.3305          0.3963 
       68550.00          0.3763          0.4020 
       68600.00          0.3832          0.3635 
       68650.00          0.4194          0.3396 
       68700.00          0.4155          0.3459 
       68750.00          0.3677          0.3226 
       68800.00          0.3427          0.3367 
       68850.00          0.3827          0.4327 
       68900.00          0.3600          0.4351 
       68950.00          0.3378          0.3976 
       69000.00          0.3670          0.4108 
       69050.00          0.3215          0.4851 
       69100.00          0.4090          0.5230 
       69150.00          0.4091          0.4517 
       69200.00          0.3906          0.4463 
       69250.00          0.4372          0.5442 
       69300.00          0.3997          0.5671 
       69350.00          0.4149          0.6024 
       69400.00          0.3529          0.6081 
       69450.00          0.3603          0.5747 
       69500.00          0.3361          0.5085 
       69550.00          0.3037          0.5805 
       69600.00          0.4194          0.6684 
       69650.00          0.3890          0.6450 
       69700.00          0.3727          0.5500 
       69750.00          0.3543          0.5698 
       69800.00          0.3589          0.5866 
       69850.00          0.3469          0.5588 
       69900.00          0.3492          0.5582 
       69950.00          0.3702          0.5564 
       70000.00          0.4487          0.6749 
       70050.00          0.5047          0.7078 
       70100.00          0.4576          0.6688 
       70150.00          0.4607          0.6746 
       70200.00          0.4567          0.6847 
       70250.00          0.3972          0.5899 
       70300.00          0.4165          0.6234 
       70350.00          0.3763          0.5569 
       70400.00          0.3502          0.5480 
       70450.00          0.3674          0.5558 
       70500.00          0.3890          0.5689 
       70550.00          0.4075          0.5783 
       70600.00          0.4062          0.5382 
       70650.00          0.4173          0.5313 
       70700.00          0.4408          0.6183 
       70750.00          0.4013          0.5603 
       70800.00          0.3732          0.5585 
       70850.00          0.3481          0.5760 
       70900.00          0.3296          0.5613 
       70950.00          0.3135          0.5489 
       71000.00          0.3641          0.5892 
       71050.00          0.4022          0.6257 
       71100.00          0.4285          0.5422 
       71150.00          0.4264          0.5169 
       71200.00          0.4447          0.5365 
       71250.00          0.4266          0.4526 
       71300.00          0.3834          0.4838 
       71350.00          0.4030          0.4922 
       71400.00          0.4045          0.5143 
       71450.00          0.3810          0.5861 
       71500.00          0.4272          0.5423 
       71550.00          0.4424          0.6404 
       71600.00          0.4377          0.6291 
       71650.00          0.4248          0.6492 
       71700.00          0.4639          0.6503 
       71750.00          0.4340          0.6554 
       71800.00          0.4680          0.6706 
       71850.00          0.4284          0.6303 
       71900.00          0.4890          0.6507 
       71950.00          0.5018          0.6665 
       72000.00          0.4336          0.6165 
       72050.00          0.4112          0.5769 
       72100.00          0.4708          0.6488 
       72150.00          0.4326          0.6177 
       72200.00          0.4255          0.6213 
       72250.00          0.4442          0.6187 
       72300.00          0.4475          0.6080 
       72350.00          0.4330          0.6340 
       72400.00          0.3706          0.5727 
       72450.00          0.3989          0.6091 
       72500.00          0.4176          0.5904 
       72550.00          0.3569          0.5527 
       72600.00          0.3424          0.5793 
       72650.00          0.3803          0.5780 
       72700.00          0.4349          0.5869 
       72750.00          0.3720          0.5547 
       72800.00          0.4734          0.6381 
       72850.00          0.4838          0.5975 
       72900.00          0.4214          0.5099 
       72950.00          0.4168          0.5594 
       73000.00          0.4212          0.5912 
       73050.00          0.4012          0.5530 
       73100.00          0.3655          0.5208 
       73150.00          0.4059          0.5992 
       73200.00          0.4081          0.6014 
       73250.00          0.3778          0.5847 
       73300.00          0.3534          0.5954 
       73350.00          0.3718          0.5970 
       73400.00          0.3793          0.5931 
       73450.00          0.3764          0.5946 
       73500.00          0.3814          0.5821 
       73550.00          0.3507          0.5716 
       73600.00          0.3886          0.6392 
       73650.00          0.4302          0.6502 
       73700.00          0.4565          0.6340 
       73750.00          0.4365          0.6079 
       73800.00          0.4467          0.5706 
       73850.00          0.4407          0.5454 
       73900.00          0.4334          0.5718 
       73950.00          0.4166          0.4624 
       74000.00          0.4470          0.3127 
       74050.00          0.4056          0.3124 
       74100.00          0.4182          0.3320 
       74150.00          0.4363          0.2911 
       74200.00          0.4009          0.4355 
       74250.00          0.4166          0.5639 
       74300.00          0.3929          0.5646 
       74350.00          0.4216          0.5255 
       74400.00          0.3602          0.4497 
       74450.00          0.3586          0.4263 
       74500.00          0.3637          0.4676 
       74550.00          0.3561          0.5086 
       74600.00          0.3772          0.5131 
       74650.00          0.3922          0.5326 
       74700.00          0.3865          0.4871 
       74750.00          0.3667          0.5624 
       74800.00          0.4165          0.6241 
       74850.00          0.4744          0.6941 
       74900.00          0.4631          0.6930 
       74950.00          0.4814          0.7140 
       75000.00          0.4729          0.6175 
       75050.00          0.3854          0.5643 
       75100.00          0.2968          0.5931 
       75150.00          0.4020          0.6109 
       75200.00          0.3810          0.6084 
       75250.00          0.4094          0.6342 
       75300.00          0.4727          0.6786 
       75350.00          0.4416          0.6916 
       75400.00          0.4216          0.6416 
       75450.00          0.3884          0.5466 
       75500.00          0.4288          0.5086 
       75550.00          0.3931          0.5590 
       75600.00          0.4026          0.6017 
       75650.00          0.3598          0.5816 
       75700.00          0.3456          0.5681 
       75750.00          0.3273          0.5412 
       75800.00          0.3346          0.5178 
       75850.00          0.3411          0.4513 
       75900.00          0.3104          0.4302 
       75950.00          0.3716          0.5139 
       76000.00          0.3893          0.5357 
       76050.00          0.4262          0.6150 
       76100.00          0.3949          0.5868 
       76150.00          0.4216          0.6151 
       76200.00          0.4343          0.6335 
       76250.00          0.4244          0.6609 
       76300.00          0.4401          0.6619 
       76350.00          0.4152          0.5927 
       76400.00          0.4332          0.6158 
       76450.00          0.4178          0.5405 
       76500.00          0.4090          0.5306 
       76550.00          0.3849          0.5199 
       76600.00          0.4092          0.5677 
       76650.00          0.4143          0.6365 
       76700.00          0.3746          0.6200 
       76750.00          0.3751          0.5805 
       76800.00          0.3704          0.6262 
       76850.00          0.4102          0.6085 
       76900.00          0.4541          0.6348 
       76950.00          0.4473          0.5819 
       77000.00          0.4694          0.5807 
       77050.00          0.4503          0.5921 
       77100.00          0.4467          0.5411 
       77150.00          0.4209          0.5282 
       77200.00          0.4232          0.5439 
       77250.00          0.4293          0.4769 
       77300.00          0.4540          0.5992 
       77350.00          0.3773          0.5665 
       77400.00          0.4021          0.5316 
       77450.00          0.4063          0.5407 
       77500.00          0.4354          0.5547 
       77550.00          0.4610          0.5702 
       77600.00          0.4137          0.5853 
       77650.00          0.4437          0.5528 
       77700.00          0.4070          0.5209 
       77750.00          0.3957          0.5862 
       77800.00          0.3932          0.5365 
       77850.00          0.4302          0.5470 
       77900.00          0.4134          0.5396 
       77950.00          0.4158          0.5446 
       78000.00          0.3826          0.5488 
       78050.00          0.4439          0.5385 
       78100.00          0.4387          0.5128 
       78150.00          0.4358          0.4489 
       78200.00          0.4044          0.4491 
       78250.00          0.4261          0.3341 
       78300.00          0.4088          0.3182 
       78350.00          0.3488          0.3767 
       78400.00          0.3766          0.4618 
       78450.00          0.3944          0.4416 
       78500.00          0.3886          0.4499 
       78550.00          0.3781          0.4002 
       78600.00          0.3696          0.3337 
       78650.00          0.4026          0.3165 
       78700.00          0.3757          0.3734 
       78750.00          0.3549          0.4735 
       78800.00          0.3739          0.5696 
       78850.00          0.3628          0.5295 
       78900.00          0.3536          0.4823 
       78950.00          0.3230          0.4979 
       79000.00          0.3413          0.5716 
       79050.00          0.3497          0.5378 
       79100.00          0.3519          0.5724 
       79150.00          0.4063          0.6432 
       79200.00          0.4414          0.5883 
       79250.00          0.4018          0.5363 
       79300.00          0.2374          0.5408 
       79350.00          0.3432          0.5569 
       79400.00          0.2865          0.5025 
       79450.00          0.3328          0.4647 
       79500.00          0.3771          0.4117 
       79550.00          0.3666          0.3960 
       79600.00          0.4077          0.3669 
       79650.00          0.3764          0.4099 
       79700.00          0.4117          0.4084 
       79750.00          0.3997          0.3731 
       79800.00          0.3912          0.4524 
       79850.00          0.4362          0.5237 
       79900.00          0.4037          0.4927 
       79950.00          0.3999          0.4389 
       80000.00          0.4073          0.5049 
       80050.00          0.3760          0.5269 
       80100.00          0.3949          0.5270 
       80150.00          0.3619          0.5870 
       80200.00          0.3791          0.6107 
       80250.00          0.4810          0.6954 
       80300.00          0.4430          0.6391 
       80350.00          0.3940          0.5788 
       80400.00          0.4029          0.5829 
       80450.00          0.4129          0.5928 
       80500.00          0.3962          0.5652 
       80550.00          0.4252          0.6255 
       80600.00          0.4082          0.5580 
       80650.00          0.4277          0.4444 
       80700.00          0.3696          0.3642 
       80750.00          0.3642          0.3728 
       80800.00          0.3741          0.4704 
       80850.00          0.3657          0.5107 
       80900.00          0.4232          0.6068 
       80950.00          0.3677          0.5502 
       81000.00          0.4178          0.6158 
       81050.00          0.4541          0.5819 
       81100.00          0.3993          0.4486 
       81150.00          0.4399          0.4249 
       81200.00          0.4191          0.4366 
       81250.00          0.4472          0.3614 
       81300.00          0.4295          0.2963 
       81350.00          0.4003          0.3095 
       81400.00          0.4419          0.3393 
       81450.00          0.3942          0.3327 
       81500.00          0.3819          0.3224 
       81550.00          0.3962          0.4821 
       81600.00          0.4019          0.4605 
       81650.00          0.3926          0.4685 
       81700.00          0.3797          0.3790 
       81750.00          0.3680          0.4651 
       81800.00          0.3561          0.5089 
       81850.00          0.3246          0.4961 
       81900.00          0.3608          0.4894 
       81950.00          0.3443          0.5996 
       82000.00          0.3484          0.5904 
       82050.00          0.3913          0.6218 
       82100.00          0.3880          0.6215 
       82150.00          0.4314          0.6286 
       82200.00          0.4576          0.6689 
       82250.00          0.4475          0.6597 
       82300.00          0.4328          0.6445 
       82350.00          0.4686          0.5908 
       82400.00          0.4703          0.6044 
       82450.00          0.4418          0.6226 
       82500.00          0.4634          0.6496 
       82550.00          0.4707          0.6557 
       82600.00          0.4515          0.6473 
       82650.00          0.3822          0.5570 
       82700.00          0.4081          0.4274 
       82750.00          0.4495          0.4642 
       82800.00          0.4757          0.5802 
       82850.00          0.4646          0.6040 
       82900.00          0.4019          0.6100 
       82950.00          0.3359          0.5528 
       83000.00          0.3924          0.5842 
       83050.00          0.4083          0.5714 
       83100.00          0.4692          0.5835 
       83150.00          0.4152          0.5467 
       83200.00          0.4490          0.4965 
       83250.00          0.4519          0.4052 
       83300.00          0.4463          0.4704 
       83350.00          0.4238          0.4824 
       83400.00          0.4087          0.4948 
       83450.00          0.4117          0.4893 
       83500.00          0.4001          0.4687 
       83550.00          0.4173          0.4562 
       83600.00          0.3747          0.4617 
       83650.00          0.3983          0.4682 
       83700.00          0.4213          0.4240 
       83750.00          0.3854          0.4851 
       83800.00          0.4030          0.5391 
       83850.00          0.4795          0.6154 
       83900.00          0.5194          0.7139 
       83950.00          0.4486          0.6556 
       84000.00          0.4460          0.6587 
       84050.00          0.4222          0.6444 
       84100.00          0.4997          0.6874 
       84150.00          0.4250          0.6458 
       84200.00          0.4911          0.7327 
       84250.00          0.4579          0.6891 
       84300.00          0.4296          0.5987 
       84350.00          0.4335          0.6135 
       84400.00          0.4456          0.6430 
       84450.00          0.4399          0.5565 
       84500.00          0.4694          0.5367 
       84550.00          0.4423          0.4952 
       84600.00          0.4343          0.5680 
       84650.00          0.4046          0.5457 
       84700.00          0.4554          0.5618 
       84750.00          0.4373          0.5212 
       84800.00          0.4267          0.5279 
       84850.00          0.4360          0.5091 
       84900.00          0.4193          0.5137 
       84950.00          0.3760          0.4826 
       85000.00          0.3811          0.4843 
       85050.00          0.3816          0.5104 
       85100.00          0.3650          0.5156 
       85150.00          0.3625          0.5371 
       85200.00          0.3697          0.5140 
       85250.00          0.3920          0.5004 
       85300.00          0.3581          0.3951 
       85350.00          0.4128          0.4776 
       85400.00          0.3525          0.4102 
       85450.00          0.4236          0.4555 
       85500.00          0.4296          0.5216 
       85550.00          0.4304          0.5979 
       85600.00          0.4164          0.5928 
       85650.00          0.4227          0.6231 
       85700.00          0.4498          0.6086 
       85750.00          0.4974          0.6909 
       85800.00          0.4255          0.6478 
       85850.00          0.4742          0.7112 
       85900.00          0.4814          0.7007 
       85950.00          0.4493          0.6312 
       86000.00          0.4265          0.6011 
       86050.00          0.4508          0.5348 
       86100.00          0.4261          0.5158 
       86150.00          0.3845          0.5180 
       86200.00          0.4248          0.5210 
       86250.00          0.3853          0.4916 
       86300.00          0.3873          0.5195 
       86350.00          0.3542          0.4775 
       86400.00          0.3860          0.4742 
       86450.00          0.3800          0.4341 
       86500.00          0.3377          0.4283 
       86550.00          0.3735          0.5055 
       86600.00          0.3146          0.4860 
       86650.00          0.3291          0.3991 
       86700.00          0.3572          0.4387 
       86750.00          0.3403          0.5390 
       86800.00          0.3362          0.4143 
       86850.00          0.3291          0.3728 
       86900.00          0.3281          0.3927 
       86950.00          0.3445          0.3750 
       87000.00          0.3200          0.4141 
       87050.00          0.3383          0.3638 
       87100.00          0.3043          0.3293 
       87150.00          0.3333          0.3432 
       87200.00          0.3839          0.3006 
       87250.00          0.3543          0.3523 
       87300.00          0.3291          0.3508 
       87350.00          0.3107          0.3818 
       87400.00          0.2837          0.3964 
       87450.00          0.2966          0.3554 
       87500.00          0.2921          0.4475 
       87550.00          0.2885          0.3800 
       87600.00          0.2981          0.3934 
       87650.00          0.3190          0.3724 
       87700.00          0.3498          0.3393 
       87750.00          0.3251          0.3851 
       87800.00          0.3200          0.3939 
       87850.00          0.3156          0.3668 
       87900.00          0.3084          0.3934 
       87950.00          0.2941          0.3810 
       88000.00          0.3305          0.4206 
       88050.00          0.3051          0.4271 
       88100.00          0.3474          0.3571 
       88150.00          0.3395          0.4414 
       88200.00          0.3282          0.4277 
       88250.00          0.3317          0.3888 
       88300.00          0.3062          0.4025 
       88350.00          0.2841          0.4097 
       88400.00          0.3029          0.4780 
       88450.00          0.3219          0.4699 
       88500.00          0.3111          0.3833 
       88550.00          0.3612          0.3533 
       88600.00          0.3355          0.3541 
       88650.00          0.3452          0.3342 
       88700.00          0.3536          0.3396 
       88750.00          0.3661          0.3064 
       88800.00          0.3611          0.3231 
       88850.00          0.4079          0.3211 
       88900.00          0.3731          0.3296 
       88950.00          0.3714          0.3269 
       89000.00          0.3663          0.3096 
       89050.00          0.3074          0.3832 
       89100.00          0.3554          0.3396 
       89150.00          0.3418          0.3548 
       89200.00          0.3575          0.4189 
       89250.00          0.3317          0.4189 
       89300.00          0.3446          0.4527 
       89350.00          0.3177          0.4447 
       89400.00          0.3412          0.4459 
       89450.00          0.3130          0.4259 
       89500.00          0.3435          0.3586 
       89550.00          0.3584          0.3756 
       89600.00          0.3885          0.3737 
       89650.00          0.3966          0.3154 
       89700.00          0.3635          0.3845 
       89750.00          0.3896          0.4395 
       89800.00          0.3997          0.4081 
       89850.00          0.3871          0.4272 
       89900.00          0.3788          0.3784 
       89950.00          0.4425          0.3822 
       90000.00          0.4534          0.3963 
       90050.00          0.4083          0.3552 
       90100.00          0.3960          0.4018 
       90150.00          0.4050          0.4038 
       90200.00          0.3892          0.4403 
       90250.00          0.3265          0.4346 
       90300.00          0.3366          0.4504 
       90350.00          0.3712          0.5544 
       90400.00          0.3903          0.6350 
       90450.00          0.3715          0.5934 
       90500.00          0.4079          0.6854 
       90550.00          0.4055          0.6254 
       90600.00          0.4155          0.5894 
       90650.00          0.4216          0.6293 
       90700.00          0.4156          0.6415 
       90750.00          0.4426          0.6612 
       90800.00          0.3699          0.5652 
       90850.00          0.3878          0.6081 
       90900.00          0.3998          0.5738 
       90950.00          0.4108          0.5385 
       91000.00          0.3616          0.4214 
       91050.00          0.4107          0.3551 
       91100.00          0.4699          0.2975 
       91150.00          0.4390          0.3439 
       91200.00          0.4332          0.3962 
       91250.00          0.4351          0.4220 
       91300.00          0.4184          0.4074 
       91350.00          0.4046          0.3853 
       91400.00          0.4242          0.4449 
       91450.00          0.4539          0.5607 
       91500.00          0.3898          0.5380 
       91550.00          0.4074          0.5036 
       91600.00          0.4412          0.5100 
       91650.00          0.3903          0.3836 
       91700.00          0.3991          0.3231 
       91750.00          0.4094          0.3056 
       91800.00          0.4335          0.3083 
       91850.00          0.4147          0.2863 
       91900.00          0.3990          0.3186 
       91950.00          0.4241          0.3340 
       92000.00          0.4401          0.2983 
       92050.00          0.4391          0.3160 
       92100.00          0.4154          0.3990 
       92150.00          0.3923          0.3956 
       92200.00          0.4155          0.2609 
       92250.00          0.4270          0.3076 
       92300.00          0.3459          0.3976 
       92350.00          0.3998          0.3805 
       92400.00          0.4026          0.4501 
       92450.00          0.3666          0.4533 
       92500.00          0.3851          0.4002 
       92550.00          0.3588          0.4194 
       92600.00          0.3151          0.4284 
       92650.00          0.3654          0.5573 
       92700.00          0.4238          0.5748 
       92750.00          0.4249          0.5930 
       92800.00          0.4266          0.5280 
       92850.00          0.4337          0.5665 
       92900.00          0.4970          0.6231 
       92950.00          0.4505          0.5933 
       93000.00          0.4055          0.6258 
       93050.00          0.4045          0.6038 
       93100.00          0.4249          0.6128 
       93150.00          0.4162          0.5564 
       93200.00          0.4539          0.5798 
       93250.00          0.4105          0.5635 
       93300.00          0.4410          0.5484 
       93350.00          0.4092          0.5687 
       93400.00          0.3812          0.5043 
       93450.00          0.4031          0.4751 
       93500.00          0.4328          0.5430 
       93550.00          0.4505          0.5036 
       93600.00          0.4092          0.5248 
       93650.00          0.4454          0.4995 
       93700.00          0.3899          0.5147 
       93750.00          0.4021          0.4576 
       93800.00          0.4166          0.4750 
       93850.00          0.3894          0.5028 
       93900.00          0.3756          0.4376 
       93950.00          0.3955          0.5079 
       94000.00          0.3769          0.4900 
       94050.00          0.3656          0.5003 
       94100.00          0.3274          0.5356 
       94150.00          0.2857          0.4872 
       94200.00          0.3872          0.4094 
       94250.00          0.3186          0.4151 
       94300.00          0.3125          0.4439 
       94350.00          0.3169          0.4964 
       94400.00          0.3933          0.5182 
       94450.00          0.4120          0.4375 
       94500.00          0.3987          0.4672 
       94550.00          0.4337          0.5014 
       94600.00          0.4272          0.3543 
       94650.00          0.4240          0.5101 
       94700.00          0.4192          0.5909 
       94750.00          0.4136          0.6364 
       94800.00          0.4056          0.5749 
       94850.00          0.4022          0.5767 
       94900.00          0.4014          0.5555 
       94950.00          0.4012          0.5375 
       95000.00          0.4204          0.5376 
       95050.00          0.4216          0.5104 
       95100.00          0.3877          0.5049 
       95150.00          0.3776          0.5708 
       95200.00          0.4174          0.5749 
       95250.00          0.3611          0.5702 
       95300.00          0.3265          0.5280 
       95350.00          0.4119          0.5859 
       95400.00          0.4848          0.6588 
       95450.00          0.4675          0.6931 
       95500.00          0.4584          0.6809 
       95550.00          0.4605          0.6491 
       95600.00          0.4258          0.6560 
       95650.00          0.4619          0.7036 
       95700.00          0.4522          0.6494 
       95750.00          0.4423          0.5928 
       95800.00          0.4508          0.6320 
       95850.00          0.3856          0.5922 
       95900.00          0.3904          0.6009 
       95950.00          0.3795          0.5927 
       96000.00          0.3844          0.6297 
       96050.00          0.4464          0.6815 
       96100.00          0.4031          0.6271 
       96150.00          0.3454          0.5716 
       96200.00          0.3586          0.5576 
       96250.00          0.3419          0.4809 
       96300.00          0.3467          0.5370 
       96350.00          0.3606          0.5874 
       96400.00          0.3660          0.5778 
       96450.00          0.3821          0.5887 
       96500.00          0.3901          0.5924 
       96550.00          0.3784          0.6345 
       96600.00          0.3839          0.6296 
       96650.00          0.3735          0.6456 
       96700.00          0.3870          0.6325 
       96750.00          0.3701          0.5623 
       96800.00          0.4001          0.5050 
       96850.00          0.4150          0.4346 
       96900.00          0.3815          0.3783 
       96950.00          0.4269          0.3182 
       97000.00          0.3840          0.3466 
       97050.00          0.4482          0.3431 
       97100.00          0.4204          0.4730 
       97150.00          0.4161          0.4251 
       97200.00          0.4239          0.4616 
       97250.00          0.4387          0.3725 
       97300.00          0.4479          0.3731 
       97350.00          0.4119          0.2859 
       97400.00          0.4286          0.3163 
       97450.00          0.4249          0.3900 
       97500.00          0.4042          0.4009 
       97550.00          0.3834          0.4277 
       97600.00          0.4112          0.3837 
       97650.00          0.4263          0.3725 
       97700.00          0.3697          0.4140 
       97750.00          0.4056          0.4467 
       97800.00          0.3807          0.4619 
       97850.00          0.3767          0.4257 
       97900.00          0.3762          0.4210 
       97950.00          0.3787          0.4224 
       98000.00          0.3784          0.4784 
       98050.00          0.4034          0.4838 
       98100.00          0.3563          0.4838 
       98150.00          0.3993          0.4367 
       98200.00          0.3666          0.4609 
       98250.00          0.4326          0.4074 
       98300.00          0.4487          0.3749 
       98350.00          0.4146          0.3946 
       98400.00          0.4324          0.5437 
       98450.00          0.3705          0.4934 
       98500.00          0.4293          0.4890 
       98550.00          0.4273          0.4940 
       98600.00          0.3983          0.5441 
       98650.00          0.4046          0.5284 
       98700.00          0.4306          0.5381 
       98750.00          0.4161          0.5379 
       98800.00          0.4455          0.5680 
       98850.00          0.3666          0.5364 
       98900.00          0.4194          0.5836 
       98950.00          0.4250          0.5732 
       99000.00          0.4485          0.5598 
       99050.00          0.4262          0.5465 
       99100.00          0.3299          0.5319 
       99150.00          0.3617          0.5237 
       99200.00          0.3891          0.5932 
       99250.00          0.3418          0.5248 
       99300.00          0.3481          0.5356 
       99350.00          0.3765          0.5199 
       99400.00          0.3794          0.4832 
       99450.00          0.3545          0.5419 
       99500.00          0.3753          0.5031 
       99550.00          0.3440          0.5350 
       99600.00          0.3668          0.5343 
       99650.00          0.2995          0.5157 
       99700.00          0.3464          0.5133 
       99750.00          0.3615          0.5696 
       99800.00          0.3776          0.5514 
       99850.00          0.3633          0.5227 
       99900.00          0.3158          0.4860 
       99950.00          0.3577          0.4933 
      100000.00          0.4067          0.4673 
