@    xaxis  label "t"
@    yaxis  label "RMSD (nm)"
           0.00          0.0002          0.4517 
          50.00          0.1663          0.4777 
         100.00          0.2646          0.5252 
         150.00          0.3110          0.5460 
         200.00          0.3684          0.4671 
         250.00          0.3298          0.4209 
         300.00          0.2861          0.4271 
         350.00          0.2997          0.4888 
         400.00          0.3159          0.4366 
         450.00          0.3696          0.4188 
         500.00          0.3044          0.4334 
         550.00          0.2800          0.4132 
         600.00          0.2900          0.5128 
         650.00          0.3634          0.4986 
         700.00          0.3978          0.4424 
         750.00          0.4059          0.4624 
         800.00          0.4533          0.4227 
         850.00          0.4352          0.4771 
         900.00          0.4253          0.5151 
         950.00          0.4428          0.5283 
        1000.00          0.4442          0.5562 
        1050.00          0.4769          0.4920 
        1100.00          0.4589          0.5478 
        1150.00          0.4980          0.5942 
        1200.00          0.4468          0.5882 
        1250.00          0.4472          0.5958 
        1300.00          0.4339          0.5121 
        1350.00          0.4206          0.4730 
        1400.00          0.4272          0.4481 
        1450.00          0.4243          0.4195 
        1500.00          0.4469          0.4367 
        1550.00          0.4224          0.5016 
        1600.00          0.4469          0.5868 
        1650.00          0.4038          0.5617 
        1700.00          0.4572          0.5586 
        1750.00          0.4205          0.4999 
        1800.00          0.4193          0.4733 
        1850.00          0.4329          0.3596 
        1900.00          0.4071          0.4211 
        1950.00          0.4284          0.3362 
        2000.00          0.4409          0.3924 
        2050.00          0.4287          0.4486 
        2100.00          0.4567          0.4584 
        2150.00          0.3909          0.4612 
        2200.00          0.4089          0.4732 
        2250.00          0.4225          0.4974 
        2300.00          0.4487          0.6039 
        2350.00          0.4125          0.5749 
        2400.00          0.4405          0.4989 
        2450.00          0.4164          0.4976 
        2500.00          0.3874          0.4145 
        2550.00          0.4563          0.3520 
        2600.00          0.3974          0.4351 
        2650.00          0.3690          0.4156 
        2700.00          0.3847          0.4214 
        2750.00          0.3755          0.4121 
        2800.00          0.4124          0.4258 
        2850.00          0.3869          0.4210 
        2900.00          0.3799          0.4342 
        2950.00          0.3621          0.4087 
        3000.00          0.3634          0.4855 
        3050.00          0.3207          0.4424 
        3100.00          0.3537          0.4894 
        3150.00          0.3487          0.4956 
        3200.00          0.4055          0.4821 
        3250.00          0.3592          0.4465 
        3300.00          0.4202          0.5228 
        3350.00          0.4018          0.6064 
        3400.00          0.4228          0.5498 
        3450.00          0.4203          0.5565 
        3500.00          0.4050          0.5553 
        3550.00          0.4464          0.6384 
        3600.00          0.4264          0.4809 
        3650.00          0.3677          0.4573 
        3700.00          0.3992          0.4688 
        3750.00          0.4189          0.4715 
        3800.00          0.3949          0.5075 
        3850.00          0.4423          0.6532 
        3900.00          0.4576          0.6213 
        3950.00          0.4416          0.6644 
        4000.00          0.5036          0.7128 
        4050.00          0.4302          0.6400 
        4100.00          0.4607          0.5699 
        4150.00          0.4816          0.6013 
        4200.00          0.4257          0.6308 
        4250.00          0.4379          0.6588 
        4300.00          0.4520          0.6451 
        4350.00          0.4537          0.6191 
        4400.00          0.4681          0.7097 
        4450.00          0.5140          0.7278 
        4500.00          0.5221          0.7438 
        4550.00          0.4740          0.7182 
        4600.00          0.4792          0.7197 
        4650.00          0.4725          0.6889 
        4700.00          0.5159          0.7320 
        4750.00          0.5052          0.7055 
        4800.00          0.4715          0.6335 
        4850.00          0.4054          0.6539 
        4900.00          0.4315          0.5711 
        4950.00          0.4045          0.5715 
        5000.00          0.4479          0.5714 
        5050.00          0.4148          0.5653 
        5100.00          0.4459          0.5887 
        5150.00          0.4313          0.6496 
        5200.00          0.4165          0.6259 
        5250.00          0.4429          0.5282 
        5300.00          0.3634          0.4875 
        5350.00          0.3919          0.3843 
        5400.00          0.4159          0.4701 
        5450.00          0.3920          0.4950 
        5500.00          0.4404          0.5577 
        5550.00          0.4073          0.4861 
        5600.00          0.3926          0.4460 
        5650.00          0.3767          0.4883 
        5700.00          0.3904          0.4605 
        5750.00          0.4117          0.4925 
        5800.00          0.3423          0.5891 
        5850.00          0.3829          0.5873 
        5900.00          0.4089          0.6291 
        5950.00          0.3850          0.6222 
        6000.00          0.4310          0.6799 
        6050.00          0.4103          0.6459 
        6100.00          0.4481          0.6849 
        6150.00          0.3651          0.6400 
        6200.00          0.3955          0.6194 
        6250.00          0.3820          0.5465 
        6300.00          0.3984          0.5578 
        6350.00          0.3476          0.5035 
        6400.00          0.3886          0.5121 
        6450.00          0.4424          0.5369 
        6500.00          0.4403          0.5854 
        6550.00          0.4363          0.4412 
        6600.00          0.4365          0.4679 
        6650.00          0.4581          0.3711 
        6700.00          0.4572          0.3161 
        6750.00          0.4218          0.4090 
        6800.00          0.3726          0.4238 
        6850.00          0.4029          0.4060 
        6900.00          0.4342          0.4874 
        6950.00          0.4537          0.5601 
        7000.00          0.3862          0.5236 
        7050.00          0.3448          0.5305 
        7100.00          0.3864          0.4416 
        7150.00          0.4138          0.4339 
        7200.00          0.4024          0.4075 
        7250.00          0.3684          0.4875 
        7300.00          0.3764          0.4559 
        7350.00          0.3527          0.4705 
        7400.00          0.3689          0.4926 
        7450.00          0.3434          0.4826 
        7500.00          0.3733          0.4538 
        7550.00          0.3974          0.4398 
        7600.00          0.3792          0.4504 
        7650.00          0.3727          0.4499 
        7700.00          0.3690          0.4387 
        7750.00          0.3990          0.4398 
        7800.00          0.4370          0.3689 
        7850.00          0.4457          0.3783 
        7900.00          0.4129          0.4011 
        7950.00          0.4037          0.3775 
        8000.00          0.4165          0.4350 
        8050.00          0.3878          0.4172 
        8100.00          0.3694          0.4221 
        8150.00          0.3919          0.3882 
        8200.00          0.3899          0.3911 
        8250.00          0.3285          0.4734 
        8300.00          0.3959          0.4326 
        8350.00          0.3894          0.4251 
        8400.00          0.3867          0.3415 
        8450.00          0.3938          0.4255 
        8500.00          0.4365          0.5477 
        8550.00          0.5245          0.6549 
        8600.00          0.4373          0.6560 
        8650.00          0.5076          0.6868 
        8700.00          0.5299          0.7008 
        8750.00          0.4773          0.6613 
        8800.00          0.4418          0.6301 
        8850.00          0.4961          0.6218 
        8900.00          0.4519          0.5427 
        8950.00          0.3942          0.4873 
        9000.00          0.3382          0.5033 
        9050.00          0.3505          0.5867 
        9100.00          0.3133          0.3684 
        9150.00          0.3712          0.3539 
        9200.00          0.3170          0.4067 
        9250.00          0.3360          0.3460 
        9300.00          0.4159          0.2482 
        9350.00          0.4006          0.3172 
        9400.00          0.3617          0.3276 
        9450.00          0.4323          0.3398 
        9500.00          0.4015          0.2574 
        9550.00          0.4399          0.2898 
        9600.00          0.3930          0.3941 
        9650.00          0.4213          0.3683 
        9700.00          0.4360          0.2979 
        9750.00          0.3890          0.3388 
        9800.00          0.3839          0.4056 
        9850.00          0.3827          0.4240 
        9900.00          0.4105          0.3922 
        9950.00          0.4114          0.4438 
       10000.00          0.4557          0.4897 
       10050.00          0.4040          0.4645 
       10100.00          0.3724          0.5533 
       10150.00          0.2989          0.4919 
       10200.00          0.2984          0.4581 
       10250.00          0.4225          0.4906 
       10300.00          0.4670          0.6014 
       10350.00          0.4394          0.5113 
       10400.00          0.4487          0.5639 
       10450.00          0.4677          0.6708 
       10500.00          0.4436          0.5837 
       10550.00          0.4187          0.5250 
       10600.00          0.4541          0.4548 
       10650.00          0.4294          0.5423 
       10700.00          0.3906          0.4714 
       10750.00          0.4013          0.5264 
       10800.00          0.4234          0.5358 
       10850.00          0.4402          0.4751 
       10900.00          0.3957          0.4523 
       10950.00          0.3965          0.3926 
       11000.00          0.3936          0.4017 
       11050.00          0.4436          0.3899 
       11100.00          0.4435          0.2998 
       11150.00          0.3917          0.3658 
       11200.00          0.3848          0.4282 
       11250.00          0.3804          0.3997 
       11300.00          0.3484          0.4177 
       11350.00          0.3316          0.3843 
       11400.00          0.3299          0.4234 
       11450.00          0.3802          0.4453 
       11500.00          0.4070          0.5077 
       11550.00          0.4447          0.6128 
       11600.00          0.3992          0.5338 
       11650.00          0.4070          0.5323 
       11700.00          0.3988          0.5042 
       11750.00          0.4059          0.4784 
       11800.00          0.4010          0.5017 
       11850.00          0.3333          0.5185 
       11900.00          0.3226          0.5449 
       11950.00          0.3280          0.4674 
       12000.00          0.3848          0.4600 
       12050.00          0.3745          0.4192 
       12100.00          0.3776          0.4110 
       12150.00          0.3397          0.4048 
       12200.00          0.3434          0.5209 
       12250.00          0.3325          0.5144 
       12300.00          0.3307          0.5399 
       12350.00          0.3555          0.4503 
       12400.00          0.3863          0.3990 
       12450.00          0.3935          0.3575 
       12500.00          0.4487          0.3488 
       12550.00          0.4277          0.2707 
       12600.00          0.4774          0.2905 
       12650.00          0.4693          0.3346 
       12700.00          0.4422          0.3107 
       12750.00          0.4759          0.2890 
       12800.00          0.4650          0.2769 
       12850.00          0.4614          0.3011 
       12900.00          0.4302          0.3855 
       12950.00          0.4949          0.3507 
       13000.00          0.4649          0.3812 
       13050.00          0.4852          0.3731 
       13100.00          0.4345          0.4255 
       13150.00          0.4121          0.3838 
       13200.00          0.3963          0.4037 
       13250.00          0.3850          0.4071 
       13300.00          0.3720          0.3820 
       13350.00          0.3661          0.4299 
       13400.00          0.3649          0.4316 
       13450.00          0.3576          0.4692 
       13500.00          0.4150          0.5273 
       13550.00          0.3719          0.4899 
       13600.00          0.4200          0.5885 
       13650.00          0.3552          0.5073 
       13700.00          0.4081          0.4458 
       13750.00          0.4600          0.5416 
       13800.00          0.4296          0.5338 
       13850.00          0.4994          0.6297 
       13900.00          0.4236          0.5817 
       13950.00          0.4156          0.6302 
       14000.00          0.4263          0.6489 
       14050.00          0.4479          0.6464 
       14100.00          0.4876          0.6819 
       14150.00          0.4699          0.6612 
       14200.00          0.3879          0.5896 
       14250.00          0.3666          0.6129 
       14300.00          0.3588          0.5774 
       14350.00          0.3630          0.5710 
       14400.00          0.3629          0.5457 
       14450.00          0.4542          0.6533 
       14500.00          0.4882          0.6856 
       14550.00          0.5048          0.7007 
       14600.00          0.4634          0.6707 
       14650.00          0.5013          0.6714 
       14700.00          0.4231          0.6099 
       14750.00          0.4451          0.5511 
       14800.00          0.4551          0.5496 
       14850.00          0.4055          0.4626 
       14900.00          0.4158          0.4641 
       14950.00          0.3747          0.5117 
       15000.00          0.3721          0.5168 
       15050.00          0.3769          0.4668 
       15100.00          0.3404          0.4757 
       15150.00          0.3736          0.5090 
       15200.00          0.4332          0.5904 
       15250.00          0.4546          0.5847 
       15300.00          0.4378          0.6237 
       15350.00          0.4264          0.6558 
       15400.00          0.4851          0.7191 
       15450.00          0.4863          0.7147 
       15500.00          0.4765          0.7068 
       15550.00          0.4886          0.6919 
       15600.00          0.4540          0.6763 
       15650.00          0.4921          0.7210 
       15700.00          0.4503          0.6710 
       15750.00          0.4441          0.6506 
       15800.00          0.4680          0.6098 
       15850.00          0.4139          0.6186 
       15900.00          0.4610          0.6737 
       15950.00          0.4875          0.6925 
       16000.00          0.5252          0.6940 
       16050.00          0.5101          0.7008 
       16100.00          0.5317          0.7342 
       16150.00          0.4970          0.6773 
       16200.00          0.5134          0.6888 
       16250.00          0.4689          0.6701 
       16300.00          0.4934          0.6752 
       16350.00          0.5104          0.7048 
       16400.00          0.4857          0.6721 
       16450.00          0.4540          0.6106 
       16500.00          0.5285          0.7110 
       16550.00          0.4964          0.6608 
       16600.00          0.4810          0.6784 
       16650.00          0.4920          0.6293 
       16700.00          0.4325          0.6027 
       16750.00          0.4562          0.6710 
       16800.00          0.4946          0.6636 
       16850.00          0.4253          0.6541 
       16900.00          0.4851          0.6770 
       16950.00          0.5036          0.7078 
       17000.00          0.4770          0.6362 
       17050.00          0.4038          0.6222 
       17100.00          0.3889          0.5941 
       17150.00          0.3205          0.4845 
       17200.00          0.3323          0.4622 
       17250.00          0.3304          0.4309 
       17300.00          0.3443          0.4615 
       17350.00          0.3627          0.4568 
       17400.00          0.3667          0.5233 
       17450.00          0.3536          0.4555 
       17500.00          0.3442          0.4792 
       17550.00          0.4058          0.5347 
       17600.00          0.4263          0.5912 
       17650.00          0.3741          0.5385 
       17700.00          0.3934          0.5728 
       17750.00          0.3707          0.5469 
       17800.00          0.4179          0.5927 
       17850.00          0.4177          0.5951 
       17900.00          0.4592          0.7000 
       17950.00          0.3892          0.6182 
       18000.00          0.3743          0.5931 
       18050.00          0.3531          0.5416 
       18100.00          0.4693          0.6748 
       18150.00          0.3982          0.5548 
       18200.00          0.4001          0.5582 
       18250.00          0.3540          0.5474 
       18300.00          0.4488          0.5923 
       18350.00          0.3914          0.5821 
       18400.00          0.3997          0.5884 
       18450.00          0.3698          0.5396 
       18500.00          0.3502          0.5332 
       18550.00          0.3676          0.5282 
       18600.00          0.3633          0.5377 
       18650.00          0.3719          0.5588 
       18700.00          0.3730          0.5626 
       18750.00          0.3631          0.5965 
       18800.00          0.3795          0.5826 
       18850.00          0.4797          0.6920 
       18900.00          0.4690          0.6642 
       18950.00          0.3904          0.6268 
       19000.00          0.4820          0.7024 
       19050.00          0.3757          0.5932 
       19100.00          0.4461          0.6223 
       19150.00          0.4283          0.5798 
       19200.00          0.4947          0.6699 
       19250.00          0.4307          0.6582 
       19300.00          0.4493          0.6245 
       19350.00          0.4336          0.6178 
       19400.00          0.4335          0.5864 
       19450.00          0.4281          0.5367 
       19500.00          0.4396          0.5758 
       19550.00          0.3931          0.5445 
       19600.00          0.4016          0.6267 
       19650.00          0.3797          0.5960 
       19700.00          0.4194          0.6663 
       19750.00          0.4511          0.6374 
       19800.00          0.4575          0.5838 
       19850.00          0.4325          0.5647 
       19900.00          0.4729          0.5391 
       19950.00          0.4411          0.4698 
       20000.00          0.3949          0.4668 
       20050.00          0.4175          0.3565 
       20100.00          0.3984          0.4135 
       20150.00          0.4026          0.4239 
       20200.00          0.3851          0.4053 
       20250.00          0.4023          0.5221 
       20300.00          0.3926          0.5087 
       20350.00          0.4087          0.5033 
       20400.00          0.4054          0.4737 
       20450.00          0.4353          0.5565 
       20500.00          0.3791          0.4079 
       20550.00          0.3924          0.3406 
       20600.00          0.3609          0.4137 
       20650.00          0.3771          0.4365 
       20700.00          0.4044          0.3880 
       20750.00          0.4141          0.3112 
       20800.00          0.3930          0.3804 
       20850.00          0.3666          0.3327 
       20900.00          0.3804          0.3152 
       20950.00          0.3937          0.3900 
       21000.00          0.3624          0.3931 
       21050.00          0.3915          0.4274 
       21100.00          0.3834          0.3743 
       21150.00          0.3969          0.4122 
       21200.00          0.3940          0.4700 
       21250.00          0.3494          0.4734 
       21300.00          0.3902          0.4638 
       21350.00          0.3826          0.5192 
       21400.00          0.3686          0.4922 
       21450.00          0.3799          0.5009 
       21500.00          0.3372          0.5079 
       21550.00          0.3721          0.4455 
       21600.00          0.3921          0.4089 
       21650.00          0.4000          0.2939 
       21700.00          0.4668          0.2528 
       21750.00          0.4687          0.3239 
       21800.00          0.4733          0.2634 
       21850.00          0.4030          0.3605 
       21900.00          0.3684          0.4370 
       21950.00          0.3373          0.4681 
       22000.00          0.3912          0.4967 
       22050.00          0.3555          0.5153 
       22100.00          0.3083          0.4719 
       22150.00          0.3477          0.5365 
       22200.00          0.3821          0.4429 
       22250.00          0.4098          0.3803 
       22300.00          0.3884          0.4566 
       22350.00          0.3604          0.4310 
       22400.00          0.3785          0.4765 
       22450.00          0.3268          0.5114 
       22500.00          0.3864          0.4789 
       22550.00          0.3922          0.4549 
       22600.00          0.3790          0.4058 
       22650.00          0.3580          0.4365 
       22700.00          0.3835          0.4509 
       22750.00          0.3886          0.3602 
       22800.00          0.4705          0.2847 
       22850.00          0.4427          0.3620 
       22900.00          0.3615          0.3920 
       22950.00          0.3677          0.4824 
       23000.00          0.3874          0.5475 
       23050.00          0.3859          0.5154 
       23100.00          0.3712          0.4595 
       23150.00          0.4007          0.4025 
       23200.00          0.4091          0.3218 
       23250.00          0.3971          0.3839 
       23300.00          0.4194          0.4458 
       23350.00          0.3853          0.4444 
       23400.00          0.4129          0.5385 
       23450.00          0.4123          0.4435 
       23500.00          0.4044          0.3829 
       23550.00          0.4416          0.3315 
       23600.00          0.4158          0.3984 
       23650.00          0.4278          0.4829 
       23700.00          0.4058          0.5434 
       23750.00          0.4238          0.5276 
       23800.00          0.4531          0.5339 
       23850.00          0.4157          0.5267 
       23900.00          0.3706          0.5143 
       23950.00          0.3782          0.4857 
       24000.00          0.3165          0.4313 
       24050.00          0.4113          0.3919 
       24100.00          0.4446          0.2914 
       24150.00          0.4237          0.3018 
       24200.00          0.4350          0.3711 
       24250.00          0.4466          0.3770 
       24300.00          0.4213          0.4339 
       24350.00          0.4134          0.5642 
       24400.00          0.5002          0.6447 
       24450.00          0.4950          0.6800 
       24500.00          0.4871          0.6761 
       24550.00          0.4834          0.6996 
       24600.00          0.4967          0.7246 
       24650.00          0.4870          0.6937 
       24700.00          0.5249          0.7435 
       24750.00          0.4900          0.6747 
       24800.00          0.4338          0.6289 
       24850.00          0.4547          0.6446 
       24900.00          0.4241          0.6431 
       24950.00          0.4202          0.6408 
       25000.00          0.4169          0.5845 
       25050.00          0.4271          0.5811 
       25100.00          0.4217          0.6269 
       25150.00          0.4369          0.6673 
       25200.00          0.4660          0.6323 
       25250.00          0.4050          0.6348 
       25300.00          0.4040          0.5952 
       25350.00          0.4154          0.6288 
       25400.00          0.4129          0.5843 
       25450.00          0.4008          0.5335 
       25500.00          0.3855          0.5467 
       25550.00          0.3827          0.4854 
       25600.00          0.3724          0.4667 
       25650.00          0.4093          0.6170 
       25700.00          0.3518          0.5273 
       25750.00          0.3504          0.5330 
       25800.00          0.3789          0.5643 
       25850.00          0.4070          0.6021 
       25900.00          0.3965          0.5562 
       25950.00          0.3850          0.6016 
       26000.00          0.4533          0.5941 
       26050.00          0.4441          0.6416 
       26100.00          0.4642          0.6994 
       26150.00          0.4844          0.7378 
       26200.00          0.4567          0.6774 
       26250.00          0.3885          0.5668 
       26300.00          0.3356          0.5945 
       26350.00          0.3841          0.5831 
       26400.00          0.3640          0.5457 
       26450.00          0.3724          0.5088 
       26500.00          0.4233          0.4375 
       26550.00          0.4237          0.4725 
       26600.00          0.4291          0.4228 
       26650.00          0.4223          0.4434 
       26700.00          0.4171          0.4201 
       26750.00          0.4040          0.5012 
       26800.00          0.4263          0.5452 
       26850.00          0.4558          0.5111 
       26900.00          0.4597          0.5384 
       26950.00          0.4512          0.5574 
       27000.00          0.4283          0.5359 
       27050.00          0.4561          0.6326 
       27100.00          0.4236          0.6131 
       27150.00          0.4194          0.5180 
       27200.00          0.4106          0.4702 
       27250.00          0.3871          0.4727 
       27300.00          0.3488          0.5114 
       27350.00          0.3856          0.5373 
       27400.00          0.4304          0.5654 
       27450.00          0.4211          0.5308 
       27500.00          0.4589          0.5469 
       27550.00          0.4458          0.6160 
       27600.00          0.4111          0.5240 
       27650.00          0.4221          0.5434 
       27700.00          0.3835          0.5379 
       27750.00          0.4138          0.6110 
       27800.00          0.3774          0.6334 
       27850.00          0.4212          0.6462 
       27900.00          0.4288          0.6445 
       27950.00          0.4162          0.5666 
       28000.00          0.4361          0.4347 
       28050.00          0.4266          0.4943 
       28100.00          0.4498          0.3769 
       28150.00          0.4410          0.3627 
       28200.00          0.4515          0.3811 
       28250.00          0.4461          0.4016 
       28300.00          0.4215          0.4125 
       28350.00          0.4578          0.5443 
       28400.00          0.4236          0.5263 
       28450.00          0.3905          0.4921 
       28500.00          0.4074          0.4928 
       28550.00          0.4230          0.5072 
       28600.00          0.4245          0.5183 
       28650.00          0.3891          0.5473 
       28700.00          0.3554          0.5417 
       28750.00          0.3710          0.5844 
       28800.00          0.3458          0.5513 
       28850.00          0.3740          0.5040 
       28900.00          0.3840          0.5020 
       28950.00          0.4129          0.5463 
       29000.00          0.4144          0.4980 
       29050.00          0.3790          0.5542 
       29100.00          0.3724          0.5311 
       29150.00          0.3627          0.5199 
       29200.00          0.3668          0.5359 
       29250.00          0.4187          0.4734 
       29300.00          0.4122          0.4294 
       29350.00          0.4206          0.4006 
       29400.00          0.4491          0.3457 
       29450.00          0.5124          0.3224 
       29500.00          0.4937          0.3563 
       29550.00          0.4311          0.3500 
       29600.00          0.3977          0.4681 
       29650.00          0.4690          0.4988 
       29700.00          0.4719          0.5938 
       29750.00          0.4696          0.6957 
       29800.00          0.4808          0.6517 
       29850.00          0.4527          0.6363 
       29900.00          0.4653          0.6656 
       29950.00          0.5134          0.7314 
       30000.00          0.4787          0.6743 
       30050.00          0.4575          0.6649 
       30100.00          0.4833          0.7039 
       30150.00          0.4864          0.7066 
       30200.00          0.4298          0.5802 
       30250.00          0.4435          0.5921 
       30300.00          0.4468          0.6235 
       30350.00          0.4329          0.6181 
       30400.00          0.4484          0.6692 
       30450.00          0.4874          0.6838 
       30500.00          0.4774          0.7037 
       30550.00          0.4551          0.6104 
       30600.00          0.4546          0.6014 
       30650.00          0.4518          0.6161 
       30700.00          0.4331          0.6040 
       30750.00          0.3544          0.5552 
       30800.00          0.3922          0.4410 
       30850.00          0.4223          0.4666 
       30900.00          0.4101          0.4839 
       30950.00          0.3882          0.5044 
       31000.00          0.3822          0.4414 
       31050.00          0.3651          0.3955 
       31100.00          0.3201          0.3787 
       31150.00          0.3277          0.4341 
       31200.00          0.2977          0.5042 
       31250.00          0.3257          0.5782 
       31300.00          0.3463          0.5289 
       31350.00          0.3741          0.4352 
       31400.00          0.4287          0.3921 
       31450.00          0.3746          0.5289 
       31500.00          0.3568          0.4774 
       31550.00          0.4007          0.3768 
       31600.00          0.3406          0.3680 
       31650.00          0.3576          0.4506 
       31700.00          0.3880          0.4597 
       31750.00          0.3861          0.4351 
       31800.00          0.4215          0.4192 
       31850.00          0.3488          0.4572 
       31900.00          0.3895          0.5531 
       31950.00          0.3892          0.5729 
       32000.00          0.4345          0.5955 
       32050.00          0.4300          0.5939 
       32100.00          0.4110          0.5627 
       32150.00          0.4370          0.5849 
       32200.00          0.4218          0.5796 
       32250.00          0.3986          0.5510 
       32300.00          0.3992          0.5134 
       32350.00          0.3773          0.5688 
       32400.00          0.3748          0.5852 
       32450.00          0.3971          0.5984 
       32500.00          0.3990          0.6053 
       32550.00          0.3794          0.6220 
       32600.00          0.3647          0.6135 
       32650.00          0.3855          0.6346 
       32700.00          0.4468          0.6376 
       32750.00          0.4715          0.6469 
       32800.00          0.4640          0.6025 
       32850.00          0.3978          0.5604 
       32900.00          0.4030          0.5388 
       32950.00          0.4124          0.4993 
       33000.00          0.4556          0.5168 
       33050.00          0.4511          0.4603 
       33100.00          0.4371          0.5297 
       33150.00          0.4767          0.5216 
       33200.00          0.4309          0.4994 
       33250.00          0.4470          0.4862 
       33300.00          0.4217          0.5055 
       33350.00          0.4355          0.5053 
       33400.00          0.4263          0.4413 
       33450.00          0.4177          0.3936 
       33500.00          0.4119          0.3329 
       33550.00          0.4244          0.4730 
       33600.00          0.3756          0.4075 
       33650.00          0.4040          0.5126 
       33700.00          0.4103          0.5715 
       33750.00          0.4496          0.5951 
       33800.00          0.4277          0.6129 
       33850.00          0.4166          0.5693 
       33900.00          0.4695          0.6251 
       33950.00          0.4612          0.6561 
       34000.00          0.4232          0.5221 
       34050.00          0.4387          0.5213 
       34100.00          0.4247          0.5745 
       34150.00          0.4149          0.4620 
       34200.00          0.4301          0.4022 
       34250.00          0.4618          0.5401 
       34300.00          0.4437          0.5530 
       34350.00          0.4204          0.5670 
       34400.00          0.4263          0.4799 
       34450.00          0.4446          0.3559 
       34500.00          0.4014          0.4417 
       34550.00          0.3933          0.4823 
       34600.00          0.3960          0.4951 
       34650.00          0.4035          0.4637 
       34700.00          0.4288          0.4090 
       34750.00          0.4582          0.3558 
       34800.00          0.3949          0.3749 
       34850.00          0.4060          0.5344 
       34900.00          0.3832          0.5626 
       34950.00          0.3486          0.5342 
       35000.00          0.3969          0.5386 
       35050.00          0.3776          0.5109 
       35100.00          0.3965          0.4709 
       35150.00          0.4028          0.4640 
       35200.00          0.3885          0.5133 
       35250.00          0.4078          0.4991 
       35300.00          0.3931          0.4645 
       35350.00          0.4310          0.4674 
       35400.00          0.3997          0.3593 
       35450.00          0.4515          0.3141 
       35500.00          0.4498          0.3105 
       35550.00          0.4495          0.2599 
       35600.00          0.4531          0.2740 
       35650.00          0.4540          0.2876 
       35700.00          0.4199          0.3908 
       35750.00          0.4198          0.3947 
       35800.00          0.3900          0.4142 
       35850.00          0.3775          0.4096 
       35900.00          0.3369          0.4400 
       35950.00          0.3623          0.3912 
       36000.00          0.3690          0.4275 
       36050.00          0.3632          0.3888 
       36100.00          0.3463          0.4277 
       36150.00          0.4120          0.5412 
       36200.00          0.4324          0.4928 
       36250.00          0.3653          0.3866 
       36300.00          0.3461          0.3803 
       36350.00          0.3423          0.4273 
       36400.00          0.3375          0.4605 
       36450.00          0.3934          0.5279 
       36500.00          0.3935          0.4594 
       36550.00          0.3569          0.5135 
       36600.00          0.3696          0.5176 
       36650.00          0.2996          0.4969 
       36700.00          0.3411          0.5431 
       36750.00          0.3991          0.5503 
       36800.00          0.4321          0.5273 
       36850.00          0.4237          0.4034 
       36900.00          0.4698          0.4378 
       36950.00          0.4444          0.4382 
       37000.00          0.4792          0.4090 
       37050.00          0.5037          0.3272 
       37100.00          0.4956          0.3550 
       37150.00          0.4724          0.3761 
       37200.00          0.4296          0.4326 
       37250.00          0.4235          0.5113 
       37300.00          0.4259          0.4931 
       37350.00          0.4035          0.5189 
       37400.00          0.3914          0.4750 
       37450.00          0.3745          0.4615 
       37500.00          0.3980          0.4109 
       37550.00          0.3724          0.4715 
       37600.00          0.3631          0.4977 
       37650.00          0.3135          0.4450 
       37700.00          0.3121          0.4655 
       37750.00          0.3283          0.5133 
       37800.00          0.3619          0.5126 
       37850.00          0.3844          0.4993 
       37900.00          0.3261          0.4545 
       37950.00          0.3893          0.4108 
       38000.00          0.4286          0.3458 
       38050.00          0.4011          0.3795 
       38100.00          0.4345          0.3128 
       38150.00          0.4511          0.3683 
       38200.00          0.3761          0.4327 
       38250.00          0.4269          0.3503 
       38300.00          0.3987          0.3272 
       38350.00          0.3683          0.3826 
       38400.00          0.3588          0.4299 
       38450.00          0.4033          0.5359 
       38500.00          0.3304          0.4526 
       38550.00          0.3262          0.4840 
       38600.00          0.3465          0.5077 
       38650.00          0.3755          0.5445 
       38700.00          0.4131          0.5600 
       38750.00          0.4180          0.4943 
       38800.00          0.3629          0.5090 
       38850.00          0.3962          0.5077 
       38900.00          0.3885          0.4597 
       38950.00          0.3757          0.4636 
       39000.00          0.4057          0.4649 
       39050.00          0.4229          0.5367 
       39100.00          0.4600          0.6354 
       39150.00          0.3914          0.5978 
       39200.00          0.3848          0.5362 
       39250.00          0.4353          0.5669 
       39300.00          0.4346          0.5373 
       39350.00          0.3838          0.5504 
       39400.00          0.3983          0.5198 
       39450.00          0.3977          0.4573 
       39500.00          0.4037          0.4880 
       39550.00          0.3687          0.4484 
       39600.00          0.3695          0.4871 
       39650.00          0.3532          0.4808 
       39700.00          0.3689          0.4654 
       39750.00          0.3916          0.5317 
       39800.00          0.4421          0.4596 
       39850.00          0.4404          0.4536 
       39900.00          0.3947          0.4351 
       39950.00          0.4437          0.4040 
       40000.00          0.4376          0.4017 
       40050.00          0.3930          0.4086 
       40100.00          0.4237          0.4161 
       40150.00          0.4541          0.5090 
       40200.00          0.4346          0.5358 
       40250.00          0.4219          0.5013 
       40300.00          0.4360          0.4868 
       40350.00          0.4277          0.4766 
       40400.00          0.4330          0.4375 
       40450.00          0.4106          0.4780 
       40500.00          0.4232          0.4564 
       40550.00          0.3315          0.5037 
       40600.00          0.3608          0.5810 
       40650.00          0.4057          0.5777 
       40700.00          0.3684          0.5488 
       40750.00          0.3891          0.4455 
       40800.00          0.3945          0.5267 
       40850.00          0.3943          0.5900 
       40900.00          0.4097          0.6532 
       40950.00          0.4222          0.7058 
       41000.00          0.4210          0.6318 
       41050.00          0.3412          0.5559 
       41100.00          0.3205          0.6075 
       41150.00          0.3268          0.6113 
       41200.00          0.3529          0.6083 
       41250.00          0.3737          0.5422 
       41300.00          0.3145          0.5625 
       41350.00          0.3904          0.5091 
       41400.00          0.4059          0.4489 
       41450.00          0.3800          0.4671 
       41500.00          0.4118          0.4955 
       41550.00          0.4183          0.5909 
       41600.00          0.4356          0.5893 
       41650.00          0.3933          0.5351 
       41700.00          0.3742          0.5334 
       41750.00          0.3850          0.5006 
       41800.00          0.3817          0.4883 
       41850.00          0.3938          0.4927 
       41900.00          0.4061          0.4643 
       41950.00          0.4048          0.4911 
       42000.00          0.3942          0.5344 
       42050.00          0.4353          0.4722 
       42100.00          0.4490          0.4234 
       42150.00          0.4446          0.4662 
       42200.00          0.4216          0.4145 
       42250.00          0.4358          0.4688 
       42300.00          0.4107          0.5508 
       42350.00          0.4201          0.5052 
       42400.00          0.4903          0.6715 
       42450.00          0.4748          0.7214 
       42500.00          0.4593          0.6724 
       42550.00          0.4497          0.6454 
       42600.00          0.4812          0.6953 
       42650.00          0.4458          0.6895 
       42700.00          0.4617          0.6717 
       42750.00          0.4286          0.5674 
       42800.00          0.3947          0.6222 
       42850.00          0.4266          0.5751 
       42900.00          0.3856          0.4352 
       42950.00          0.4493          0.3504 
       43000.00          0.4360          0.3810 
       43050.00          0.4437          0.3843 
       43100.00          0.4263          0.3824 
       43150.00          0.3660          0.3555 
       43200.00          0.4288          0.4094 
       43250.00          0.4218          0.4068 
       43300.00          0.3966          0.4030 
       43350.00          0.4126          0.4930 
       43400.00          0.4298          0.5442 
       43450.00          0.4742          0.6347 
       43500.00          0.4738          0.6800 
       43550.00          0.5009          0.6944 
       43600.00          0.5242          0.7240 
       43650.00          0.4954          0.7267 
       43700.00          0.4882          0.7146 
       43750.00          0.5383          0.7243 
       43800.00          0.5007          0.6858 
       43850.00          0.5195          0.7063 
       43900.00          0.4934          0.6751 
       43950.00          0.4458          0.6582 
       44000.00          0.4264          0.6281 
       44050.00          0.4611          0.5913 
       44100.00          0.4129          0.5659 
       44150.00          0.3920          0.4736 
       44200.00          0.4352          0.4426 
       44250.00          0.4597          0.3815 
       44300.00          0.4559          0.4078 
       44350.00          0.4250          0.5809 
       44400.00          0.4501          0.7056 
       44450.00          0.4315          0.6179 
       44500.00          0.4650          0.6330 
       44550.00          0.4184          0.5416 
       44600.00          0.4462          0.5804 
       44650.00          0.3969          0.5466 
       44700.00          0.3552          0.5150 
       44750.00          0.3712          0.5535 
       44800.00          0.4367          0.5679 
       44850.00          0.4450          0.5172 
       44900.00          0.4271          0.5468 
       44950.00          0.3938          0.5573 
       45000.00          0.3990          0.5573 
       45050.00          0.3978          0.4256 
       45100.00          0.3839          0.3582 
       45150.00          0.3851          0.4336 
       45200.00          0.3336          0.4694 
       45250.00          0.3775          0.5126 
       45300.00          0.3219          0.4544 
       45350.00          0.3172          0.4708 
       45400.00          0.3428          0.4482 
       45450.00          0.3644          0.4589 
       45500.00          0.3696          0.5396 
       45550.00          0.4338          0.6296 
       45600.00          0.3752          0.6098 
       45650.00          0.4223          0.5503 
       45700.00          0.4252          0.6061 
       45750.00          0.4238          0.6020 
       45800.00          0.4336          0.6702 
       45850.00          0.4440          0.6981 
       45900.00          0.4561          0.5902 
       45950.00          0.4496          0.5886 
       46000.00          0.4450          0.6100 
       46050.00          0.4846          0.5739 
       46100.00          0.4929          0.6263 
       46150.00          0.4364          0.5909 
       46200.00          0.4341          0.5572 
       46250.00          0.4627          0.5963 
       46300.00          0.4537          0.6133 
       46350.00          0.4216          0.6105 
       46400.00          0.4191          0.4814 
       46450.00          0.3703          0.4998 
       46500.00          0.3850          0.5091 
       46550.00          0.3888          0.5396 
       46600.00          0.4136          0.5210 
       46650.00          0.4244          0.5315 
       46700.00          0.4050          0.5069 
       46750.00          0.3592          0.5357 
       46800.00          0.3643          0.6120 
       46850.00          0.4531          0.6088 
       46900.00          0.4725          0.6007 
       46950.00          0.4866          0.6487 
       47000.00          0.4567          0.6665 
       47050.00          0.4483          0.6333 
       47100.00          0.4239          0.4854 
       47150.00          0.4546          0.4878 
       47200.00          0.4060          0.4130 
       47250.00          0.4268          0.4924 
       47300.00          0.4424          0.4994 
       47350.00          0.4703          0.4768 
       47400.00          0.4412          0.5009 
       47450.00          0.4207          0.5255 
       47500.00          0.4441          0.5857 
       47550.00          0.4130          0.4800 
       47600.00          0.3872          0.4204 
       47650.00          0.2648          0.4655 
       47700.00          0.2565          0.5149 
       47750.00          0.2657          0.4972 
       47800.00          0.2985          0.4434 
       47850.00          0.3116          0.4623 
       47900.00          0.3113          0.4485 
       47950.00          0.3175          0.4851 
       48000.00          0.2712          0.5188 
       48050.00          0.2631          0.4970 
       48100.00          0.2610          0.4902 
       48150.00          0.2098          0.5005 
       48200.00          0.2164          0.5159 
       48250.00          0.1723          0.5206 
       48300.00          0.1180          0.4560 
       48350.00          0.0679          0.4428 
       48400.00          0.0993          0.4470 
       48450.00          0.0722          0.4436 
       48500.00          0.0504          0.4397 
       48550.00          0.0538          0.4363 
       48600.00          0.0928          0.4607 
       48650.00          0.1268          0.4513 
       48700.00          0.0846          0.4406 
       48750.00          0.0575          0.4397 
       48800.00          0.0744          0.4425 
       48850.00          0.0529          0.4604 
       48900.00          0.0842          0.4388 
       48950.00          0.0579          0.4599 
       49000.00          0.0469          0.4593 
       49050.00          0.0652          0.4483 
       49100.00          0.0863          0.4449 
       49150.00          0.0607          0.4497 
       49200.00          0.0430          0.4450 
       49250.00          0.0529          0.4500 
       49300.00          0.0832          0.4373 
       49350.00          0.0706          0.4519 
       49400.00          0.0671          0.4411 
       49450.00          0.0671          0.4457 
       49500.00          0.0559          0.4439 
       49550.00          0.0611          0.4469 
       49600.00          0.1117          0.4401 
       49650.00          0.0715          0.4403 
       49700.00          0.0711          0.4301 
       49750.00          0.0773          0.4446 
       49800.00          0.0469          0.4529 
       49850.00          0.0741          0.4420 
       49900.00          0.1163          0.4369 
       49950.00          0.0681          0.4609 
       50000.00          0.0656          0.4459 
       50050.00          0.0604          0.4453 
       50100.00          0.1274          0.4313 
       50150.00          0.0725          0.4358 
       50200.00          0.1359          0.4370 
       50250.00          0.1384          0.4314 
       50300.00          0.1606          0.4539 
       50350.00          0.1144          0.4645 
       50400.00          0.1627          0.4171 
       50450.00          0.1242          0.4410 
       50500.00          0.0648          0.4495 
       50550.00          0.0908          0.4410 
       50600.00          0.0651          0.4345 
       50650.00          0.0892          0.4597 
       50700.00          0.0815          0.4461 
       50750.00          0.0760          0.4536 
       50800.00          0.0556          0.4345 
       50850.00          0.0396          0.4434 
       50900.00          0.0488          0.4505 
       50950.00          0.0826          0.4387 
       51000.00          0.1199          0.4245 
       51050.00          0.0819          0.4521 
       51100.00          0.1028          0.4350 
       51150.00          0.0685          0.4338 
       51200.00          0.0635          0.4491 
       51250.00          0.1194          0.4290 
       51300.00          0.0782          0.4423 
       51350.00          0.0650          0.4403 
       51400.00          0.0675          0.4561 
       51450.00          0.0477          0.4523 
       51500.00          0.0811          0.4563 
       51550.00          0.0950          0.4379 
       51600.00          0.0639          0.4432 
       51650.00          0.0414          0.4598 
       51700.00          0.0330          0.4588 
       51750.00          0.0954          0.4617 
       51800.00          0.0911          0.4486 
       51850.00          0.0535          0.4446 
       51900.00          0.0904          0.4381 
       51950.00          0.0637          0.4417 
       52000.00          0.0713          0.4432 
       52050.00          0.0719          0.4338 
       52100.00          0.0690          0.4482 
       52150.00          0.0696          0.4332 
       52200.00          0.0672          0.4248 
       52250.00          0.0649          0.4400 
       52300.00          0.0622          0.4393 
       52350.00          0.0880          0.4399 
       52400.00          0.0881          0.4400 
       52450.00          0.0839          0.4419 
       52500.00          0.0464          0.4462 
       52550.00          0.0527          0.4458 
       52600.00          0.1164          0.4390 
       52650.00          0.0973          0.4353 
       52700.00          0.1181          0.4341 
       52750.00          0.0971          0.4450 
       52800.00          0.1049          0.4274 
       52850.00          0.0556          0.4350 
       52900.00          0.0543          0.4451 
       52950.00          0.0485          0.4433 
       53000.00          0.0556          0.4607 
       53050.00          0.0598          0.4388 
       53100.00          0.0600          0.4445 
       53150.00          0.0569          0.4417 
       53200.00          0.0539          0.4441 
       53250.00          0.0664          0.4401 
       53300.00          0.0784          0.4359 
       53350.00          0.0375          0.4535 
       53400.00          0.0726          0.4408 
       53450.00          0.0579          0.4475 
       53500.00          0.0859          0.4280 
       53550.00          0.0585          0.4483 
       53600.00          0.0586          0.4445 
       53650.00          0.0720          0.4390 
       53700.00          0.0694          0.4455 
       53750.00          0.0563          0.4559 
       53800.00          0.0557          0.4528 
       53850.00          0.1219          0.4267 
       53900.00          0.1267          0.4231 
       53950.00          0.1067          0.4280 
       54000.00          0.0637          0.4442 
       54050.00          0.0576          0.4386 
       54100.00          0.0497          0.4507 
       54150.00          0.0778          0.4355 
       54200.00          0.0907          0.4365 
       54250.00          0.0464          0.4475 
       54300.00          0.0707          0.4414 
       54350.00          0.1080          0.4374 
       54400.00          0.0549          0.4421 
       54450.00          0.0654          0.4492 
       54500.00          0.0590          0.4524 
       54550.00          0.0495          0.4479 
       54600.00          0.0648          0.4429 
       54650.00          0.0856          0.4566 
       54700.00          0.0567          0.4413 
       54750.00          0.0784          0.4397 
       54800.00          0.0647          0.4373 
       54850.00          0.0756          0.4408 
       54900.00          0.0769          0.4492 
       54950.00          0.0514          0.4296 
       55000.00          0.0441          0.4587 
       55050.00          0.0362          0.4518 
       55100.00          0.0468          0.4504 
       55150.00          0.0811          0.4441 
       55200.00          0.0778          0.4345 
       55250.00          0.0545          0.4401 
       55300.00          0.0364          0.4473 
       55350.00          0.0553          0.4289 
       55400.00          0.0487          0.4521 
       55450.00          0.0737          0.4508 
       55500.00          0.0611          0.4525 
       55550.00          0.0374          0.4518 
       55600.00          0.0653          0.4431 
       55650.00          0.1040          0.4293 
       55700.00          0.0600          0.4488 
       55750.00          0.0820          0.4473 
       55800.00          0.0627          0.4370 
       55850.00          0.0817          0.4405 
       55900.00          0.0709          0.4417 
       55950.00          0.0851          0.4483 
       56000.00          0.0503          0.4454 
       56050.00          0.0562          0.4444 
       56100.00          0.0454          0.4403 
       56150.00          0.0641          0.4532 
       56200.00          0.0647          0.4425 
       56250.00          0.0633          0.4392 
       56300.00          0.0601          0.4480 
       56350.00          0.0559          0.4396 
       56400.00          0.0601          0.4381 
       56450.00          0.0526          0.4483 
       56500.00          0.0594          0.4481 
       56550.00          0.0701          0.4430 
       56600.00          0.0704          0.4369 
       56650.00          0.0507          0.4464 
       56700.00          0.0326          0.4446 
       56750.00          0.0703          0.4383 
       56800.00          0.0441          0.4476 
       56850.00          0.0465          0.4547 
       56900.00          0.0395          0.4440 
       56950.00          0.0333          0.4388 
       57000.00          0.0504          0.4454 
       57050.00          0.0453          0.4508 
       57100.00          0.0767          0.4426 
       57150.00          0.0727          0.4544 
       57200.00          0.0769          0.4519 
       57250.00          0.0378          0.4437 
       57300.00          0.0262          0.4474 
       57350.00          0.0424          0.4466 
       57400.00          0.0851          0.4423 
       57450.00          0.0510          0.4515 
       57500.00          0.0346          0.4475 
       57550.00          0.0954          0.4446 
       57600.00          0.1201          0.4286 
       57650.00          0.0960          0.4357 
       57700.00          0.0750          0.4444 
       57750.00          0.1115          0.4298 
       57800.00          0.1209          0.4307 
       57850.00          0.0504          0.4301 
       57900.00          0.0612          0.4456 
       57950.00          0.0518          0.4392 
       58000.00          0.0722          0.4368 
       58050.00          0.0807          0.4272 
       58100.00          0.0641          0.4383 
       58150.00          0.0698          0.4478 
       58200.00          0.0750          0.4524 
       58250.00          0.0549          0.4338 
       58300.00          0.0482          0.4455 
       58350.00          0.0381          0.4607 
       58400.00          0.0506          0.4469 
       58450.00          0.0715          0.4491 
       58500.00          0.0835          0.4465 
       58550.00          0.1120          0.4454 
       58600.00          0.1114          0.4320 
       58650.00          0.0491          0.4482 
       58700.00          0.0465          0.4428 
       58750.00          0.0739          0.4537 
       58800.00          0.0712          0.4407 
       58850.00          0.0310          0.4526 
       58900.00          0.0978          0.4449 
       58950.00          0.0327          0.4337 
       59000.00          0.0394          0.4518 
       59050.00          0.0894          0.4313 
       59100.00          0.0773          0.4415 
       59150.00          0.0666          0.4494 
       59200.00          0.0875          0.4339 
       59250.00          0.0594          0.4431 
       59300.00          0.0501          0.4472 
       59350.00          0.0558          0.4484 
       59400.00          0.0771          0.4410 
       59450.00          0.0992          0.4313 
       59500.00          0.0760          0.4263 
       59550.00          0.0811          0.4217 
       59600.00          0.0565          0.4497 
       59650.00          0.0551          0.4501 
       59700.00          0.1327          0.4184 
       59750.00          0.0182          0.4468 
       59800.00          0.0418          0.4435 
       59850.00          0.0943          0.4340 
       59900.00          0.0512          0.4364 
       59950.00          0.0580          0.4489 
       60000.00          0.0978          0.4363 
       60050.00          0.0886          0.4318 
       60100.00          0.0760          0.4397 
       60150.00          0.0953          0.4442 
       60200.00          0.0807          0.4389 
       60250.00          0.0706          0.4546 
       60300.00          0.0505          0.4487 
       60350.00          0.0542          0.4452 
       60400.00          0.0834          0.4471 
       60450.00          0.0523          0.4457 
       60500.00          0.0230          0.4518 
       60550.00          0.0765          0.4390 
       60600.00          0.0740          0.4337 
       60650.00          0.0558          0.4523 
       60700.00          0.0771          0.4397 
       60750.00          0.0786          0.4258 
       60800.00          0.0626          0.4465 
       60850.00          0.0400          0.4572 
       60900.00          0.1252          0.4268 
       60950.00          0.0634          0.4444 
       61000.00          0.0990          0.4382 
       61050.00          0.0355          0.4438 
       61100.00          0.0464          0.4495 
       61150.00          0.0696          0.4395 
       61200.00          0.1318          0.4217 
       61250.00          0.0512          0.4442 
       61300.00          0.0735          0.4379 
       61350.00          0.0780          0.4436 
       61400.00          0.0678          0.4379 
       61450.00          0.0668          0.4463 
       61500.00          0.0703          0.4454 
       61550.00          0.0513          0.4432 
       61600.00          0.0582          0.4410 
       61650.00          0.0809          0.4447 
       61700.00          0.0557          0.4473 
       61750.00          0.0912          0.4346 
       61800.00          0.0854          0.4238 
       61850.00          0.0621          0.4515 
       61900.00          0.0629          0.4449 
       61950.00          0.0744          0.4414 
       62000.00          0.0566          0.4406 
       62050.00          0.1059          0.4336 
       62100.00          0.0749          0.4408 
       62150.00          0.0759          0.4354 
       62200.00          0.0238          0.4413 
       62250.00          0.0536          0.4509 
       62300.00          0.0379          0.4498 
       62350.00          0.0556          0.4441 
       62400.00          0.0337          0.4501 
       62450.00          0.0526          0.4376 
       62500.00          0.0579          0.4376 
       62550.00          0.0782          0.4545 
       62600.00          0.1204          0.4247 
       62650.00          0.0558          0.4352 
       62700.00          0.0705          0.4371 
       62750.00          0.0799          0.4388 
       62800.00          0.0735          0.4507 
       62850.00          0.0647          0.4453 
       62900.00          0.0872          0.4541 
       62950.00          0.0855          0.4384 
       63000.00          0.0637          0.4353 
       63050.00          0.1224          0.4366 
       63100.00          0.0623          0.4463 
       63150.00          0.0516          0.4516 
       63200.00          0.0498          0.4382 
       63250.00          0.1181          0.4247 
       63300.00          0.1261          0.4366 
       63350.00          0.0683          0.4421 
       63400.00          0.0621          0.4416 
       63450.00          0.0585          0.4410 
       63500.00          0.0614          0.4563 
       63550.00          0.0961          0.4446 
       63600.00          0.1164          0.4214 
       63650.00          0.1273          0.4261 
       63700.00          0.1292          0.4272 
       63750.00          0.0321          0.4456 
       63800.00          0.0739          0.4365 
       63850.00          0.0627          0.4585 
       63900.00          0.0757          0.4368 
       63950.00          0.0402          0.4475 
       64000.00          0.0665          0.4489 
       64050.00          0.1120          0.4380 
       64100.00          0.0656          0.4386 
       64150.00          0.1247          0.4362 
       64200.00          0.2087          0.4297 
       64250.00          0.2160          0.4131 
       64300.00          0.1507          0.4440 
       64350.00          0.1124          0.4612 
       64400.00          0.1329          0.4551 
       64450.00          0.0875          0.4694 
       64500.00          0.1123          0.4646 
       64550.00          0.0735          0.4584 
       64600.00          0.0861          0.4477 
       64650.00          0.1006          0.4441 
       64700.00          0.1196          0.4372 
       64750.00          0.1076          0.4311 
       64800.00          0.0845          0.4507 
       64850.00          0.1067          0.4353 
       64900.00          0.0648          0.4377 
       64950.00          0.0908          0.4277 
       65000.00          0.0792          0.4496 
       65050.00          0.0648          0.4426 
       65100.00          0.1108          0.4348 
       65150.00          0.0655          0.4420 
       65200.00          0.0804          0.4341 
       65250.00          0.0639          0.4464 
       65300.00          0.1429          0.4337 
       65350.00          0.1011          0.4372 
       65400.00          0.0662          0.4294 
       65450.00          0.0722          0.4433 
       65500.00          0.0632          0.4476 
       65550.00          0.0665          0.4439 
       65600.00          0.0770          0.4389 
       65650.00          0.0498          0.4450 
       65700.00          0.1035          0.4376 
       65750.00          0.1181          0.4308 
       65800.00          0.1015          0.4487 
       65850.00          0.0961          0.4385 
       65900.00          0.0538          0.4416 
       65950.00          0.0604          0.4482 
       66000.00          0.0876          0.4395 
       66050.00          0.0806          0.4453 
       66100.00          0.1451          0.4291 
       66150.00          0.0732          0.4440 
       66200.00          0.0483          0.4464 
       66250.00          0.0546          0.4442 
       66300.00          0.0584          0.4451 
       66350.00          0.0536          0.4449 
       66400.00          0.0566          0.4404 
       66450.00          0.0710          0.4346 
       66500.00          0.0586          0.4566 
       66550.00          0.0632          0.4440 
       66600.00          0.0545          0.4372 
       66650.00          0.0605          0.4482 
       66700.00          0.0615          0.4438 
       66750.00          0.1061          0.4245 
       66800.00          0.0611          0.4368 
       66850.00          0.0569          0.4526 
       66900.00          0.0541          0.4439 
       66950.00          0.0345          0.4461 
       67000.00          0.0520          0.4466 
       67050.00          0.0630          0.4520 
       67100.00          0.0391          0.4499 
       67150.00          0.0462          0.4473 
       67200.00          0.0430          0.4413 
       67250.00          0.0375          0.4472 
       67300.00          0.0452          0.4368 
       67350.00          0.0819          0.4468 
       67400.00          0.0920          0.4318 
       67450.00          0.0315          0.4541 
       67500.00          0.0384          0.4582 
       67550.00          0.0770          0.4372 
       67600.00          0.0665          0.4490 
       67650.00          0.0876          0.4482 
       67700.00          0.0657          0.4545 
       67750.00          0.1035          0.4353 
       67800.00          0.0552          0.4466 
       67850.00          0.0925          0.4357 
       67900.00          0.0794          0.4510 
       67950.00          0.1042          0.4316 
       68000.00          0.0905          0.4398 
       68050.00          0.0990          0.4419 
       68100.00          0.0738          0.4381 
       68150.00          0.0551          0.4519 
       68200.00          0.0489          0.4599 
       68250.00          0.0368          0.4417 
       68300.00          0.0943          0.4361 
       68350.00          0.0734          0.4427 
       68400.00          0.1535          0.4265 
       68450.00          0.1368          0.4228 
       68500.00          0.1070          0.4262 
       68550.00          0.1214          0.4328 
       68600.00          0.0397          0.4442 
       68650.00          0.0464          0.4512 
       68700.00          0.0282          0.4550 
       68750.00          0.0643          0.4471 
       68800.00          0.0563          0.4599 
       68850.00          0.0883          0.4372 
       68900.00          0.0855          0.4233 
       68950.00          0.0696          0.4345 
       69000.00          0.0964          0.4315 
       69050.00          0.1106          0.4449 
       69100.00          0.0661          0.4418 
       69150.00          0.0578          0.4315 
       69200.00          0.0803          0.4262 
       69250.00          0.1239          0.4258 
       69300.00          0.0601          0.4429 
       69350.00          0.0604          0.4466 
       69400.00          0.0319          0.4517 
       69450.00          0.0750          0.4408 
       69500.00          0.0751          0.4283 
       69550.00          0.0306          0.4448 
       69600.00          0.0605          0.4216 
       69650.00          0.0657          0.4395 
       69700.00          0.1208          0.4276 
       69750.00          0.1310          0.4170 
       69800.00          0.1340          0.4192 
       69850.00          0.1284          0.4266 
       69900.00          0.0479          0.4342 
       69950.00          0.0809          0.4241 
       70000.00          0.0707          0.4559 
       70050.00          0.0642          0.4317 
       70100.00          0.0708          0.4390 
       70150.00          0.0610          0.4452 
       70200.00          0.1030          0.4341 
       70250.00          0.0585          0.4375 
       70300.00          0.1392          0.4224 
       70350.00          0.0900          0.4354 
       70400.00          0.0488          0.4474 
       70450.00          0.0455          0.4575 
       70500.00          0.0773          0.4478 
       70550.00          0.0631          0.4378 
       70600.00          0.0963          0.4380 
       70650.00          0.0875          0.4435 
       70700.00          0.0760          0.4420 
       70750.00          0.0526          0.4436 
       70800.00          0.0501          0.4487 
       70850.00          0.0299          0.4480 
       70900.00          0.0569          0.4431 
       70950.00          0.0660          0.4523 
       71000.00          0.0739          0.4462 
       71050.00          0.0705          0.4278 
       71100.00          0.0324          0.4505 
       71150.00          0.0536          0.4373 
       71200.00          0.0856          0.4483 
       71250.00          0.0867          0.4551 
       71300.00          0.1061          0.4227 
       71350.00          0.1236          0.4349 
       71400.00          0.0936          0.4433 
       71450.00          0.0858          0.4369 
       71500.00          0.0959          0.4247 
       71550.00          0.0667          0.4555 
       71600.00          0.0652          0.4442 
       71650.00          0.0621          0.4513 
       71700.00          0.0417          0.4477 
       71750.00          0.0422          0.4516 
       71800.00          0.0298          0.4630 
       71850.00          0.0496          0.4463 
       71900.00          0.0915          0.4408 
       71950.00          0.0675          0.4430 
       72000.00          0.0767          0.4421 
       72050.00          0.0796          0.4419 
       72100.00          0.0914          0.4451 
       72150.00          0.0758          0.4359 
       72200.00          0.0669          0.4396 
       72250.00          0.0681          0.4493 
       72300.00          0.0610          0.4404 
       72350.00          0.0628          0.4419 
       72400.00          0.0911          0.4409 
       72450.00          0.0850          0.4402 
       72500.00          0.1539          0.4166 
       72550.00          0.0554          0.4578 
       72600.00          0.0758          0.4444 
       72650.00          0.0684          0.4321 
       72700.00          0.0747          0.4433 
       72750.00          0.0629          0.4368 
       72800.00          0.0538          0.4378 
       72850.00          0.0515          0.4500 
       72900.00          0.0335          0.4599 
       72950.00          0.0616          0.4441 
       73000.00          0.1266          0.4229 
       73050.00          0.0637          0.4466 
       73100.00          0.0922          0.4284 
       73150.00          0.0636          0.4447 
       73200.00          0.0508          0.4527 
       73250.00          0.0991          0.4425 
       73300.00          0.0805          0.4406 
       73350.00          0.0604          0.4506 
       73400.00          0.0556          0.4374 
       73450.00          0.0741          0.4295 
       73500.00          0.0703          0.4350 
       73550.00          0.1181          0.4413 
       73600.00          0.0812          0.4415 
       73650.00          0.0690          0.4519 
       73700.00          0.0938          0.4379 
       73750.00          0.0375          0.4448 
       73800.00          0.0405          0.4477 
       73850.00          0.0786          0.4466 
       73900.00          0.0727          0.4499 
       73950.00          0.1121          0.4204 
       74000.00          0.0886          0.4480 
       74050.00          0.0618          0.4533 
       74100.00          0.0834          0.4412 
       74150.00          0.0950          0.4416 
       74200.00          0.0654          0.4548 
       74250.00          0.0781          0.4362 
       74300.00          0.0994          0.4376 
       74350.00          0.0809          0.4489 
       74400.00          0.0497          0.4433 
       74450.00          0.0586          0.4510 
       74500.00          0.0520          0.4399 
       74550.00          0.0388          0.4483 
       74600.00          0.0598          0.4473 
       74650.00          0.0608          0.4381 
       74700.00          0.0787          0.4325 
       74750.00          0.0639          0.4382 
       74800.00          0.0352          0.4445 
       74850.00          0.0827          0.4478 
       74900.00          0.0811          0.4496 
       74950.00          0.0940          0.4381 
       75000.00          0.0920          0.4476 
       75050.00          0.0749          0.4396 
       75100.00          0.0396          0.4562 
       75150.00          0.0566          0.4444 
       75200.00          0.0514          0.4539 
       75250.00          0.0841          0.4357 
       75300.00          0.0554          0.4362 
       75350.00          0.0780          0.4519 
       75400.00          0.0686          0.4429 
       75450.00          0.0820          0.4367 
       75500.00          0.0687          0.4462 
       75550.00          0.0579          0.4555 
       75600.00          0.0584          0.4457 
       75650.00          0.0815          0.4404 
       75700.00          0.0510          0.4581 
       75750.00          0.0822          0.4359 
       75800.00          0.0925          0.4464 
       75850.00          0.0934          0.4303 
       75900.00          0.0927          0.4343 
       75950.00          0.0785          0.4423 
       76000.00          0.0761          0.4324 
       76050.00          0.0563          0.4391 
       76100.00          0.0296          0.4382 
       76150.00          0.0558          0.4475 
       76200.00          0.0720          0.4535 
       76250.00          0.0604          0.4421 
       76300.00          0.0444          0.4537 
       76350.00          0.0532          0.4505 
       76400.00          0.0525          0.4470 
       76450.00          0.0790          0.4452 
       76500.00          0.0529          0.4485 
       76550.00          0.0810          0.4371 
       76600.00          0.0691          0.4471 
       76650.00          0.0676          0.4394 
       76700.00          0.0883          0.4297 
       76750.00          0.0538          0.4421 
       76800.00          0.0621          0.4516 
       76850.00          0.0667          0.4341 
       76900.00          0.0565          0.4518 
       76950.00          0.0791          0.4506 
       77000.00          0.0756          0.4488 
       77050.00          0.0586          0.4492 
       77100.00          0.0280          0.4526 
       77150.00          0.0572          0.4406 
       77200.00          0.0876          0.4576 
       77250.00          0.0647          0.4579 
       77300.00          0.0408          0.4448 
       77350.00          0.0639          0.4518 
       77400.00          0.1056          0.4421 
       77450.00          0.0521          0.4391 
       77500.00          0.0634          0.4282 
       77550.00          0.0757          0.4335 
       77600.00          0.0773          0.4515 
       77650.00          0.0598          0.4349 
       77700.00          0.0766          0.4515 
       77750.00          0.1234          0.4368 
       77800.00          0.0996          0.4316 
       77850.00          0.0441          0.4492 
       77900.00          0.0709          0.4452 
       77950.00          0.0710          0.4478 
       78000.00          0.0940          0.4501 
       78050.00          0.0844          0.4576 
       78100.00          0.0857          0.4443 
       78150.00          0.0714          0.4562 
       78200.00          0.0560          0.4466 
       78250.00          0.0671          0.4438 
       78300.00          0.1045          0.4476 
       78350.00          0.0402          0.4535 
       78400.00          0.0661          0.4429 
       78450.00          0.0648          0.4375 
       78500.00          0.0483          0.4428 
       78550.00          0.0333          0.4461 
       78600.00          0.0539          0.4442 
       78650.00          0.1212          0.4303 
       78700.00          0.0357          0.4508 
       78750.00          0.0347          0.4545 
       78800.00          0.0754          0.4282 
       78850.00          0.0898          0.4352 
       78900.00          0.0673          0.4314 
       78950.00          0.0713          0.4407 
       79000.00          0.0647          0.4402 
       79050.00          0.0658          0.4472 
       79100.00          0.0812          0.4433 
       79150.00          0.0442          0.4411 
       79200.00          0.0467          0.4431 
       79250.00          0.0763          0.4512 
       79300.00          0.0493          0.4399 
       79350.00          0.0689          0.4465 
       79400.00          0.0839          0.4375 
       79450.00          0.1111          0.4387 
       79500.00          0.0585          0.4482 
       79550.00          0.0794          0.4470 
       79600.00          0.0494          0.4500 
       79650.00          0.0748          0.4456 
       79700.00          0.0627          0.4449 
       79750.00          0.0739          0.4450 
       79800.00          0.0576          0.4559 
       79850.00          0.1042          0.4421 
       79900.00          0.0739          0.4370 
       79950.00          0.0593          0.4405 
       80000.00          0.0870          0.4394 
       80050.00          0.1271          0.4331 
       80100.00          0.0984          0.4199 
       80150.00          0.0910          0.4352 
       80200.00          0.0898          0.4424 
       80250.00          0.0577          0.4469 
       80300.00          0.0618          0.4427 
       80350.00          0.0680          0.4469 
       80400.00          0.1580          0.4109 
       80450.00          0.0964          0.4447 
       80500.00          0.0766          0.4414 
       80550.00          0.0631          0.4438 
       80600.00          0.0539          0.4388 
       80650.00          0.0589          0.4468 
       80700.00          0.0566          0.4464 
       80750.00          0.0588          0.4414 
       80800.00          0.1141          0.4399 
       80850.00          0.0861          0.4349 
       80900.00          0.0778          0.4318 
       80950.00          0.0734          0.4449 
       81000.00          0.0559          0.4363 
       81050.00          0.0784          0.4417 
       81100.00          0.0430          0.4547 
       81150.00          0.0547          0.4298 
       81200.00          0.0848          0.4256 
       81250.00          0.0477          0.4323 
       81300.00          0.0777          0.4421 
       81350.00          0.0526          0.4479 
       81400.00          0.0647          0.4427 
       81450.00          0.0831          0.4350 
       81500.00          0.0684          0.4490 
       81550.00          0.0262          0.4417 
       81600.00          0.0388          0.4431 
       81650.00          0.0237          0.4543 
       81700.00          0.0722          0.4459 
       81750.00          0.0454          0.4628 
       81800.00          0.0852          0.4435 
       81850.00          0.1059          0.4279 
       81900.00          0.0616          0.4536 
       81950.00          0.0917          0.4457 
       82000.00          0.0690          0.4533 
       82050.00          0.1003          0.4342 
       82100.00          0.1309          0.4189 
       82150.00          0.0523          0.4467 
       82200.00          0.0714          0.4311 
       82250.00          0.0668          0.4452 
       82300.00          0.0742          0.4457 
       82350.00          0.0821          0.4466 
       82400.00          0.0702          0.4376 
       82450.00          0.0750          0.4382 
       82500.00          0.0653          0.4355 
       82550.00          0.0756          0.4480 
       82600.00          0.0657          0.4493 
       82650.00          0.0655          0.4411 
       82700.00          0.1127          0.4245 
       82750.00          0.1256          0.4303 
       82800.00          0.0996          0.4251 
       82850.00          0.0712          0.4381 
       82900.00          0.1005          0.4286 
       82950.00          0.0731          0.4390 
       83000.00          0.0750          0.4488 
       83050.00          0.0622          0.4386 
       83100.00          0.0682          0.4436 
       83150.00          0.0527          0.4505 
       83200.00          0.0729          0.4314 
       83250.00          0.0674          0.4518 
       83300.00          0.0685          0.4364 
       83350.00          0.0744          0.4535 
       83400.00          0.0670          0.4528 
       83450.00          0.0750          0.4385 
       83500.00          0.0855          0.4314 
       83550.00          0.0680          0.4488 
       83600.00          0.0748          0.4512 
       83650.00          0.1206          0.4257 
       83700.00          0.0622          0.4531 
       83750.00          0.0701          0.4512 
       83800.00          0.0425          0.4498 
       83850.00          0.0795          0.4544 
       83900.00          0.0487          0.4495 
       83950.00          0.0834          0.4404 
       84000.00          0.0781          0.4374 
       84050.00          0.0668          0.4559 
       84100.00          0.0562          0.4451 
       84150.00          0.0538          0.4486 
       84200.00          0.0739          0.4464 
       84250.00          0.0832          0.4400 
       84300.00          0.0947          0.4315 
       84350.00          0.0472          0.4547 
       84400.00          0.0449          0.4515 
       84450.00          0.0643          0.4454 
       84500.00          0.0366          0.4525 
       84550.00          0.0274          0.4470 
       84600.00          0.0376          0.4551 
       84650.00          0.0530          0.4511 
       84700.00          0.0695          0.4434 
       84750.00          0.0625          0.4361 
       84800.00          0.0907          0.4201 
       84850.00          0.1105          0.4364 
       84900.00          0.0966          0.4396 
       84950.00          0.0632          0.4501 
       85000.00          0.1273          0.4312 
       85050.00          0.0567          0.4493 
       85100.00          0.0516          0.4443 
       85150.00          0.0664          0.4427 
       85200.00          0.0463          0.4412 
       85250.00          0.0632          0.4413 
       85300.00          0.0614          0.4499 
       85350.00          0.0820          0.4443 
       85400.00          0.1155          0.4437 
       85450.00          0.1041          0.4370 
       85500.00          0.0853          0.4507 
       85550.00          0.0773          0.4519 
       85600.00          0.0618          0.4446 
       85650.00          0.0810          0.4421 
       85700.00          0.1087          0.4331 
       85750.00          0.0971          0.4522 
       85800.00          0.0890          0.4415 
       85850.00          0.0651          0.4444 
       85900.00          0.0856          0.4474 
       85950.00          0.0680          0.4447 
       86000.00          0.0863          0.4597 
       86050.00          0.0862          0.4428 
       86100.00          0.0483          0.4608 
       86150.00          0.0452          0.4460 
       86200.00          0.0807          0.4437 
       86250.00          0.0435          0.4495 
       86300.00          0.0502          0.4441 
       86350.00          0.0675          0.4521 
       86400.00          0.0791          0.4452 
       86450.00          0.0361          0.4536 
       86500.00          0.0477          0.4507 
       86550.00          0.0352          0.4582 
       86600.00          0.1091          0.4247 
       86650.00          0.1031          0.4286 
       86700.00          0.0817          0.4500 
       86750.00          0.0546          0.4485 
       86800.00          0.0962          0.4442 
       86850.00          0.0623          0.4519 
       86900.00          0.0577          0.4439 
       86950.00          0.1214          0.4260 
       87000.00          0.0999          0.4395 
       87050.00          0.0912          0.4452 
       87100.00          0.0435          0.4485 
       87150.00          0.0876          0.4382 
       87200.00          0.0332          0.4538 
       87250.00          0.0344          0.4481 
       87300.00          0.0511          0.4388 
       87350.00          0.0590          0.4487 
       87400.00          0.0544          0.4505 
       87450.00          0.0677          0.4402 
       87500.00          0.1002          0.4438 
       87550.00          0.0636          0.4423 
       87600.00          0.0525          0.4448 
       87650.00          0.0743          0.4435 
       87700.00          0.0702          0.4389 
       87750.00          0.0561          0.4449 
       87800.00          0.0674          0.4453 
       87850.00          0.0542          0.4490 
       87900.00          0.0730          0.4316 
       87950.00          0.0424          0.4518 
       88000.00          0.0725          0.4466 
       88050.00          0.1189          0.4655 
       88100.00          0.1070          0.4596 
       88150.00          0.0816          0.4748 
       88200.00          0.1187          0.4763 
       88250.00          0.0940          0.4642 
       88300.00          0.0572          0.4402 
       88350.00          0.0455          0.4559 
       88400.00          0.0357          0.4452 
       88450.00          0.0486          0.4556 
       88500.00          0.0415          0.4480 
       88550.00          0.0433          0.4562 
       88600.00          0.0791          0.4426 
       88650.00          0.0643          0.4501 
       88700.00          0.0248          0.4472 
       88750.00          0.0925          0.4427 
       88800.00          0.0591          0.4429 
       88850.00          0.0416          0.4505 
       88900.00          0.0662          0.4448 
       88950.00          0.0892          0.4371 
       89000.00          0.0521          0.4359 
       89050.00          0.0461          0.4529 
       89100.00          0.0346          0.4562 
       89150.00          0.0844          0.4470 
       89200.00          0.0852          0.4359 
       89250.00          0.0468          0.4425 
       89300.00          0.0452          0.4478 
       89350.00          0.0938          0.4277 
       89400.00          0.1185          0.4265 
       89450.00          0.0667          0.4350 
       89500.00          0.0783          0.4458 
       89550.00          0.0573          0.4445 
       89600.00          0.0771          0.4403 
       89650.00          0.0991          0.4484 
       89700.00          0.1055          0.4301 
       89750.00          0.0669          0.4351 
       89800.00          0.0611          0.4319 
       89850.00          0.0594          0.4432 
       89900.00          0.0660          0.4362 
       89950.00          0.0658          0.4428 
       90000.00          0.0436          0.4439 
       90050.00          0.0349          0.4375 
       90100.00          0.0611          0.4485 
       90150.00          0.0337          0.4433 
       90200.00          0.0413          0.4518 
       90250.00          0.0447          0.4430 
       90300.00          0.0316          0.4504 
       90350.00          0.0268          0.4489 
       90400.00          0.0334          0.4511 
       90450.00          0.0445          0.4627 
       90500.00          0.0520          0.4496 
       90550.00          0.0285          0.4586 
       90600.00          0.0654          0.4491 
       90650.00          0.0730          0.4419 
       90700.00          0.0588          0.4454 
       90750.00          0.1007          0.4528 
       90800.00          0.0918          0.4445 
       90850.00          0.0540          0.4450 
       90900.00          0.0628          0.4426 
       90950.00          0.0886          0.4378 
       91000.00          0.0671          0.4299 
       91050.00          0.0821          0.4344 
       91100.00          0.0547          0.4508 
       91150.00          0.1404          0.4174 
       91200.00          0.0731          0.4492 
       91250.00          0.0852          0.4469 
       91300.00          0.0756          0.4398 
       91350.00          0.0796          0.4472 
       91400.00          0.0542          0.4463 
       91450.00          0.1044          0.4388 
       91500.00          0.0784          0.4476 
       91550.00          0.0610          0.4407 
       91600.00          0.0668          0.4427 
       91650.00          0.0663          0.4422 
       91700.00          0.0578          0.4352 
       91750.00          0.0335          0.4480 
       91800.00          0.0639          0.4402 
       91850.00          0.0737          0.4417 
       91900.00          0.0669          0.4488 
       91950.00          0.0454          0.4437 
       92000.00          0.0726          0.4514 
       92050.00          0.0685          0.4429 
       92100.00          0.0704          0.4470 
       92150.00          0.0687          0.4355 
       92200.00          0.0522          0.4464 
       92250.00          0.0777          0.4375 
       92300.00          0.0709          0.4431 
       92350.00          0.0671          0.4482 
       92400.00          0.0806          0.4460 
       92450.00          0.0773          0.4416 
       92500.00          0.0657          0.4486 
       92550.00          0.0576          0.4509 
       92600.00          0.0706          0.4384 
       92650.00          0.0382          0.4472 
       92700.00          0.0438          0.4407 
       92750.00          0.0846          0.4425 
       92800.00          0.0342          0.4489 
       92850.00          0.0707          0.4502 
       92900.00          0.0398          0.4510 
       92950.00          0.0793          0.4359 
       93000.00          0.1032          0.4314 
       93050.00          0.0510          0.4523 
       93100.00          0.0843          0.4483 
       93150.00          0.0667          0.4360 
       93200.00          0.0876          0.4397 
       93250.00          0.0653          0.4448 
       93300.00          0.0526          0.4320 
       93350.00          0.0710          0.4446 
       93400.00          0.0770          0.4356 
       93450.00          0.0765          0.4376 
       93500.00          0.0819          0.4386 
       93550.00          0.0733          0.4370 
       93600.00          0.0742          0.4427 
       93650.00          0.0665          0.4476 
       93700.00          0.0430          0.4557 
       93750.00          0.0457          0.4536 
       93800.00          0.0729          0.4524 
       93850.00          0.0711          0.4398 
       93900.00          0.0692          0.4407 
       93950.00          0.1284          0.4179 
       94000.00          0.1159          0.4347 
       94050.00          0.1327          0.4251 
       94100.00          0.0751          0.4352 
       94150.00          0.0688          0.4414 
       94200.00          0.0831          0.4351 
       94250.00          0.0949          0.4367 
       94300.00          0.0959          0.4368 
       94350.00          0.0467          0.4495 
       94400.00          0.0708          0.4450 
       94450.00          0.0735          0.4407 
       94500.00          0.0639          0.4383 
       94550.00          0.0657          0.4384 
       94600.00          0.0865          0.4295 
       94650.00          0.0811          0.4371 
       94700.00          0.0430          0.4487 
       94750.00          0.0312          0.4421 
       94800.00          0.0597          0.4543 
       94850.00          0.0936          0.4655 
       94900.00          0.1761          0.4301 
       94950.00          0.1718          0.4349 
       95000.00          0.1808          0.4304 
       95050.00          0.1860          0.4285 
       95100.00          0.2094          0.4199 
       95150.00          0.2085          0.4045 
       95200.00          0.1912          0.4193 
       95250.00          0.2064          0.4137 
       95300.00          0.2258          0.3958 
       95350.00          0.2256          0.4073 
       95400.00          0.1867          0.4244 
       95450.00          0.2038          0.4112 
       95500.00          0.1370          0.4589 
       95550.00          0.1757          0.4268 
       95600.00          0.1683          0.4292 
       95650.00          0.1840          0.4234 
       95700.00          0.1489          0.4527 
       95750.00          0.1022          0.4515 
       95800.00          0.1378          0.4486 
       95850.00          0.0469          0.4430 
       95900.00          0.0717          0.4404 
       95950.00          0.0739          0.4369 
       96000.00          0.0808          0.4537 
       96050.00          0.0676          0.4331 
       96100.00          0.1251          0.4336 
       96150.00          0.0587          0.4411 
       96200.00          0.0554          0.4478 
       96250.00          0.0575          0.4490 
       96300.00          0.1039          0.4457 
       96350.00          0.0969          0.4315 
       96400.00          0.0814          0.4488 
       96450.00          0.0541          0.4480 
       96500.00          0.0783          0.4309 
       96550.00          0.0693          0.4261 
       96600.00          0.0583          0.4486 
       96650.00          0.0767          0.4491 
       96700.00          0.0632          0.4312 
       96750.00          0.0556          0.4455 
       96800.00          0.1287          0.4300 
       96850.00          0.0563          0.4477 
       96900.00          0.0649          0.4460 
       96950.00          0.0757          0.4444 
       97000.00          0.0807          0.4393 
       97050.00          0.0663          0.4380 
       97100.00          0.0744          0.4366 
       97150.00          0.0691          0.4444 
       97200.00          0.0617          0.4419 
       97250.00          0.0505          0.4435 
       97300.00          0.0745          0.4407 
       97350.00          0.0751          0.4416 
       97400.00          0.0684          0.4470 
       97450.00          0.0628          0.4521 
       97500.00          0.0505          0.4494 
       97550.00          0.0396          0.4528 
       97600.00          0.0687          0.4348 
       97650.00          0.0722          0.4472 
       97700.00          0.0541          0.4412 
       97750.00          0.0966          0.4376 
       97800.00          0.0579          0.4496 
       97850.00          0.0853          0.4378 
       97900.00          0.0716          0.4468 
       97950.00          0.0587          0.4377 
       98000.00          0.0922          0.4417 
       98050.00          0.0734          0.4302 
       98100.00          0.0599          0.4419 
       98150.00          0.0413          0.4481 
       98200.00          0.0518          0.4437 
       98250.00          0.0863          0.4452 
       98300.00          0.0689          0.4522 
       98350.00          0.0824          0.4473 
       98400.00          0.0527          0.4550 
       98450.00          0.0747          0.4472 
       98500.00          0.1279          0.4313 
       98550.00          0.1224          0.4226 
       98600.00          0.1083          0.4287 
       98650.00          0.0712          0.4458 
       98700.00          0.0659          0.4395 
       98750.00          0.0757          0.4446 
       98800.00          0.0572          0.4374 
       98850.00          0.0759          0.4379 
       98900.00          0.0558          0.4497 
       98950.00          0.0548          0.4399 
       99000.00          0.0648          0.4548 
       99050.00          0.0569          0.4394 
       99100.00          0.0729          0.4508 
       99150.00          0.0967          0.4385 
       99200.00          0.1034          0.4445 
       99250.00          0.0970          0.4329 
       99300.00          0.0717          0.4465 
       99350.00          0.0487          0.4460 
       99400.00          0.0597          0.4437 
       99450.00          0.0561          0.4525 
       99500.00          0.0538          0.4462 
       99550.00          0.0492          0.4461 
       99600.00          0.0777          0.4445 
       99650.00          0.0706          0.4391 
       99700.00          0.0463          0.4439 
       99750.00          0.0842          0.4509 
       99800.00          0.0610          0.4455 
       99850.00          0.0906          0.4320 
       99900.00          0.0618          0.4502 
       99950.00          0.0403          0.4478 
      100000.00          0.0865          0.4401 
