@    xaxis  label "t"
@    yaxis  label "RMSD (nm)"
           0.00          0.0003          0.4517 
          50.00          0.2055          0.4056 
         100.00          0.1554          0.3944 
         150.00          0.2130          0.3792 
         200.00          0.1415          0.4213 
         250.00          0.2251          0.4048 
         300.00          0.2448          0.4390 
         350.00          0.2772          0.4413 
         400.00          0.2462          0.4576 
         450.00          0.2465          0.4467 
         500.00          0.2421          0.4518 
         550.00          0.2745          0.4157 
         600.00          0.2632          0.4269 
         650.00          0.2833          0.3940 
         700.00          0.2665          0.4111 
         750.00          0.2594          0.4384 
         800.00          0.2646          0.4554 
         850.00          0.2680          0.4303 
         900.00          0.2325          0.4581 
         950.00          0.2655          0.4249 
        1000.00          0.3269          0.3884 
        1050.00          0.3229          0.3879 
        1100.00          0.2595          0.4351 
        1150.00          0.2679          0.4063 
        1200.00          0.2767          0.4231 
        1250.00          0.3030          0.3707 
        1300.00          0.2818          0.3980 
        1350.00          0.2716          0.3943 
        1400.00          0.2825          0.3759 
        1450.00          0.2586          0.4340 
        1500.00          0.2661          0.4173 
        1550.00          0.2812          0.4083 
        1600.00          0.2397          0.4556 
        1650.00          0.2588          0.4347 
        1700.00          0.2420          0.4636 
        1750.00          0.2686          0.3947 
        1800.00          0.3097          0.3880 
        1850.00          0.2954          0.4092 
        1900.00          0.3023          0.3881 
        1950.00          0.3014          0.3810 
        2000.00          0.3326          0.3610 
        2050.00          0.3173          0.3580 
        2100.00          0.2933          0.3442 
        2150.00          0.3210          0.3630 
        2200.00          0.2992          0.3395 
        2250.00          0.3188          0.3350 
        2300.00          0.3322          0.3312 
        2350.00          0.3833          0.3167 
        2400.00          0.3851          0.3474 
        2450.00          0.3386          0.3505 
        2500.00          0.3191          0.3651 
        2550.00          0.3095          0.3606 
        2600.00          0.2556          0.3601 
        2650.00          0.2733          0.3779 
        2700.00          0.2714          0.3913 
        2750.00          0.3138          0.4016 
        2800.00          0.3467          0.3659 
        2850.00          0.3284          0.3584 
        2900.00          0.2917          0.3629 
        2950.00          0.3344          0.3776 
        3000.00          0.3376          0.3586 
        3050.00          0.3584          0.3380 
        3100.00          0.3189          0.3415 
        3150.00          0.3166          0.3570 
        3200.00          0.3262          0.3325 
        3250.00          0.3483          0.3238 
        3300.00          0.3313          0.3485 
        3350.00          0.2926          0.3730 
        3400.00          0.3218          0.3581 
        3450.00          0.3473          0.3451 
        3500.00          0.3232          0.3653 
        3550.00          0.3041          0.3855 
        3600.00          0.3179          0.3391 
        3650.00          0.3030          0.3488 
        3700.00          0.3221          0.3415 
        3750.00          0.2855          0.3367 
        3800.00          0.3144          0.3497 
        3850.00          0.3300          0.3483 
        3900.00          0.3182          0.3369 
        3950.00          0.3575          0.3433 
        4000.00          0.3158          0.3956 
        4050.00          0.3364          0.3304 
        4100.00          0.3173          0.3608 
        4150.00          0.3065          0.3679 
        4200.00          0.3380          0.3403 
        4250.00          0.2761          0.3790 
        4300.00          0.3275          0.3541 
        4350.00          0.2909          0.3567 
        4400.00          0.3251          0.3633 
        4450.00          0.3126          0.3682 
        4500.00          0.2874          0.3972 
        4550.00          0.3027          0.3839 
        4600.00          0.3384          0.3328 
        4650.00          0.3266          0.3357 
        4700.00          0.3404          0.3325 
        4750.00          0.2854          0.3428 
        4800.00          0.2774          0.3628 
        4850.00          0.2880          0.3361 
        4900.00          0.2930          0.3451 
        4950.00          0.3448          0.3587 
        5000.00          0.3612          0.3289 
        5050.00          0.2978          0.3671 
        5100.00          0.2890          0.3802 
        5150.00          0.3163          0.3772 
        5200.00          0.2748          0.3934 
        5250.00          0.2603          0.3973 
        5300.00          0.2999          0.3428 
        5350.00          0.3150          0.3186 
        5400.00          0.3013          0.3532 
        5450.00          0.3090          0.3282 
        5500.00          0.3122          0.3210 
        5550.00          0.2808          0.3403 
        5600.00          0.2619          0.3870 
        5650.00          0.3191          0.3307 
        5700.00          0.3057          0.3694 
        5750.00          0.2978          0.3698 
        5800.00          0.2801          0.4231 
        5850.00          0.2946          0.4077 
        5900.00          0.2773          0.4222 
        5950.00          0.2959          0.4272 
        6000.00          0.3062          0.3780 
        6050.00          0.2985          0.3915 
        6100.00          0.3018          0.3901 
        6150.00          0.3604          0.3784 
        6200.00          0.3226          0.3794 
        6250.00          0.3271          0.3800 
        6300.00          0.3150          0.4008 
        6350.00          0.2965          0.3899 
        6400.00          0.3174          0.3539 
        6450.00          0.2899          0.4191 
        6500.00          0.2958          0.3782 
        6550.00          0.3403          0.3632 
        6600.00          0.3328          0.3528 
        6650.00          0.3214          0.3608 
        6700.00          0.3260          0.3659 
        6750.00          0.3463          0.3681 
        6800.00          0.2944          0.3670 
        6850.00          0.2966          0.3800 
        6900.00          0.3085          0.3899 
        6950.00          0.2854          0.3426 
        7000.00          0.3254          0.3157 
        7050.00          0.3500          0.3063 
        7100.00          0.3580          0.3391 
        7150.00          0.3621          0.3266 
        7200.00          0.3612          0.3331 
        7250.00          0.3378          0.3239 
        7300.00          0.3666          0.3096 
        7350.00          0.3787          0.3127 
        7400.00          0.4012          0.3099 
        7450.00          0.3271          0.3254 
        7500.00          0.3283          0.3849 
        7550.00          0.3011          0.3308 
        7600.00          0.2672          0.3713 
        7650.00          0.1971          0.4282 
        7700.00          0.2055          0.4415 
        7750.00          0.2112          0.4468 
        7800.00          0.2057          0.4615 
        7850.00          0.2287          0.4344 
        7900.00          0.2324          0.4491 
        7950.00          0.2419          0.4162 
        8000.00          0.2289          0.4218 
        8050.00          0.2465          0.4390 
        8100.00          0.2601          0.4353 
        8150.00          0.2433          0.4377 
        8200.00          0.2509          0.4374 
        8250.00          0.2424          0.4082 
        8300.00          0.2381          0.4143 
        8350.00          0.2701          0.3985 
        8400.00          0.2800          0.3931 
        8450.00          0.2049          0.4300 
        8500.00          0.2376          0.4054 
        8550.00          0.2754          0.3921 
        8600.00          0.2457          0.4092 
        8650.00          0.2344          0.3960 
        8700.00          0.2688          0.3959 
        8750.00          0.2382          0.3986 
        8800.00          0.2389          0.4050 
        8850.00          0.2811          0.3808 
        8900.00          0.2999          0.3478 
        8950.00          0.2960          0.3698 
        9000.00          0.3212          0.3502 
        9050.00          0.2858          0.3555 
        9100.00          0.3005          0.3658 
        9150.00          0.2689          0.3681 
        9200.00          0.3254          0.3667 
        9250.00          0.2875          0.3706 
        9300.00          0.2719          0.3527 
        9350.00          0.2904          0.3538 
        9400.00          0.3034          0.3695 
        9450.00          0.3024          0.3598 
        9500.00          0.2828          0.3527 
        9550.00          0.2951          0.3823 
        9600.00          0.2899          0.3636 
        9650.00          0.2702          0.3694 
        9700.00          0.2885          0.3595 
        9750.00          0.2522          0.4132 
        9800.00          0.2612          0.3690 
        9850.00          0.2605          0.3769 
        9900.00          0.2682          0.3740 
        9950.00          0.2397          0.3922 
       10000.00          0.2188          0.3973 
       10050.00          0.2543          0.3855 
       10100.00          0.2648          0.3741 
       10150.00          0.2457          0.3868 
       10200.00          0.2236          0.4190 
       10250.00          0.2721          0.4014 
       10300.00          0.2578          0.3960 
       10350.00          0.2061          0.4257 
       10400.00          0.2754          0.4121 
       10450.00          0.2454          0.4109 
       10500.00          0.2179          0.4393 
       10550.00          0.2252          0.4267 
       10600.00          0.2319          0.4097 
       10650.00          0.2593          0.4080 
       10700.00          0.2151          0.4050 
       10750.00          0.1899          0.4175 
       10800.00          0.2286          0.4454 
       10850.00          0.2861          0.3931 
       10900.00          0.2206          0.4316 
       10950.00          0.2158          0.4293 
       11000.00          0.1906          0.4669 
       11050.00          0.1847          0.4675 
       11100.00          0.2045          0.4400 
       11150.00          0.2419          0.4341 
       11200.00          0.2274          0.4250 
       11250.00          0.2748          0.3796 
       11300.00          0.2542          0.3904 
       11350.00          0.2597          0.4018 
       11400.00          0.2466          0.4236 
       11450.00          0.2186          0.4401 
       11500.00          0.2154          0.4213 
       11550.00          0.2288          0.4220 
       11600.00          0.2213          0.4257 
       11650.00          0.2533          0.3995 
       11700.00          0.2204          0.4098 
       11750.00          0.1863          0.4342 
       11800.00          0.2045          0.4287 
       11850.00          0.2184          0.4189 
       11900.00          0.2413          0.4014 
       11950.00          0.2396          0.4127 
       12000.00          0.1996          0.4273 
       12050.00          0.2086          0.4411 
       12100.00          0.2515          0.4063 
       12150.00          0.2456          0.3982 
       12200.00          0.2251          0.4160 
       12250.00          0.1944          0.4314 
       12300.00          0.2416          0.4355 
       12350.00          0.2194          0.3826 
       12400.00          0.1657          0.4471 
       12450.00          0.2212          0.4101 
       12500.00          0.2552          0.4044 
       12550.00          0.2149          0.4371 
       12600.00          0.2564          0.4064 
       12650.00          0.2346          0.4473 
       12700.00          0.2011          0.4330 
       12750.00          0.2037          0.4560 
       12800.00          0.2061          0.4460 
       12850.00          0.2623          0.4147 
       12900.00          0.2502          0.4011 
       12950.00          0.2321          0.3882 
       13000.00          0.0994          0.4525 
       13050.00          0.1256          0.4304 
       13100.00          0.1133          0.4185 
       13150.00          0.0632          0.4400 
       13200.00          0.0802          0.4382 
       13250.00          0.0627          0.4412 
       13300.00          0.0633          0.4563 
       13350.00          0.0506          0.4514 
       13400.00          0.0493          0.4473 
       13450.00          0.0410          0.4538 
       13500.00          0.0543          0.4442 
       13550.00          0.0723          0.4479 
       13600.00          0.0840          0.4438 
       13650.00          0.0644          0.4476 
       13700.00          0.0775          0.4424 
       13750.00          0.0937          0.4305 
       13800.00          0.0689          0.4404 
       13850.00          0.0713          0.4316 
       13900.00          0.0823          0.4500 
       13950.00          0.1042          0.4402 
       14000.00          0.0942          0.4323 
       14050.00          0.0758          0.4438 
       14100.00          0.0849          0.4607 
       14150.00          0.0727          0.4448 
       14200.00          0.0678          0.4430 
       14250.00          0.0994          0.4465 
       14300.00          0.0402          0.4428 
       14350.00          0.0776          0.4488 
       14400.00          0.0724          0.4501 
       14450.00          0.0678          0.4330 
       14500.00          0.0674          0.4525 
       14550.00          0.0685          0.4451 
       14600.00          0.0701          0.4500 
       14650.00          0.0848          0.4455 
       14700.00          0.0616          0.4393 
       14750.00          0.1097          0.4227 
       14800.00          0.1000          0.4383 
       14850.00          0.0650          0.4438 
       14900.00          0.0693          0.4392 
       14950.00          0.0722          0.4293 
       15000.00          0.0646          0.4472 
       15050.00          0.0831          0.4523 
       15100.00          0.0295          0.4420 
       15150.00          0.0730          0.4494 
       15200.00          0.0729          0.4362 
       15250.00          0.0571          0.4371 
       15300.00          0.1230          0.4239 
       15350.00          0.1674          0.4012 
       15400.00          0.0830          0.4351 
       15450.00          0.0947          0.4481 
       15500.00          0.0666          0.4429 
       15550.00          0.0575          0.4386 
       15600.00          0.1068          0.4262 
       15650.00          0.0709          0.4472 
       15700.00          0.0518          0.4507 
       15750.00          0.0654          0.4502 
       15800.00          0.0628          0.4442 
       15850.00          0.0850          0.4389 
       15900.00          0.0820          0.4467 
       15950.00          0.0788          0.4351 
       16000.00          0.0741          0.4366 
       16050.00          0.0780          0.4356 
       16100.00          0.1259          0.4216 
       16150.00          0.1845          0.4011 
       16200.00          0.2020          0.4047 
       16250.00          0.2215          0.3846 
       16300.00          0.1560          0.4355 
       16350.00          0.1270          0.4600 
       16400.00          0.1363          0.4317 
       16450.00          0.1214          0.4388 
       16500.00          0.1308          0.4415 
       16550.00          0.2391          0.3755 
       16600.00          0.1721          0.3889 
       16650.00          0.1766          0.3789 
       16700.00          0.1818          0.4125 
       16750.00          0.1200          0.4362 
       16800.00          0.0995          0.4503 
       16850.00          0.0971          0.4488 
       16900.00          0.1313          0.4695 
       16950.00          0.0755          0.4559 
       17000.00          0.1467          0.4292 
       17050.00          0.1195          0.4725 
       17100.00          0.1133          0.4911 
       17150.00          0.0902          0.4769 
       17200.00          0.1394          0.4655 
       17250.00          0.2162          0.4122 
       17300.00          0.2432          0.4084 
       17350.00          0.1820          0.4404 
       17400.00          0.2477          0.4453 
       17450.00          0.2320          0.4638 
       17500.00          0.1636          0.5290 
       17550.00          0.2162          0.5376 
       17600.00          0.1971          0.4821 
       17650.00          0.2038          0.5301 
       17700.00          0.1929          0.4124 
       17750.00          0.2585          0.3811 
       17800.00          0.3487          0.3279 
       17850.00          0.3464          0.3197 
       17900.00          0.3334          0.3593 
       17950.00          0.3012          0.3868 
       18000.00          0.2648          0.3927 
       18050.00          0.2721          0.3930 
       18100.00          0.2463          0.3976 
       18150.00          0.1730          0.4427 
       18200.00          0.2217          0.4210 
       18250.00          0.2775          0.3774 
       18300.00          0.2088          0.4357 
       18350.00          0.2504          0.3947 
       18400.00          0.2313          0.4069 
       18450.00          0.2210          0.4186 
       18500.00          0.2514          0.3990 
       18550.00          0.2426          0.3912 
       18600.00          0.2056          0.4311 
       18650.00          0.2758          0.3593 
       18700.00          0.2711          0.3807 
       18750.00          0.2142          0.4500 
       18800.00          0.2398          0.4064 
       18850.00          0.2552          0.4461 
       18900.00          0.3160          0.3579 
       18950.00          0.3222          0.3998 
       19000.00          0.3138          0.4118 
       19050.00          0.3001          0.3438 
       19100.00          0.2982          0.3372 
       19150.00          0.2496          0.4161 
       19200.00          0.2701          0.4320 
       19250.00          0.2765          0.3700 
       19300.00          0.2534          0.3713 
       19350.00          0.3202          0.3735 
       19400.00          0.3092          0.3800 
       19450.00          0.2985          0.3864 
       19500.00          0.2857          0.4109 
       19550.00          0.2884          0.4174 
       19600.00          0.2599          0.4306 
       19650.00          0.2979          0.3815 
       19700.00          0.2896          0.4397 
       19750.00          0.2873          0.4211 
       19800.00          0.2947          0.4042 
       19850.00          0.1962          0.4618 
       19900.00          0.2242          0.4666 
       19950.00          0.2974          0.3994 
       20000.00          0.2995          0.4290 
       20050.00          0.2765          0.4789 
       20100.00          0.2553          0.4678 
       20150.00          0.2013          0.4340 
       20200.00          0.1477          0.4445 
       20250.00          0.1540          0.4508 
       20300.00          0.1605          0.4395 
       20350.00          0.1792          0.3969 
       20400.00          0.1107          0.4421 
       20450.00          0.1509          0.4341 
       20500.00          0.1550          0.4410 
       20550.00          0.1135          0.4526 
       20600.00          0.1322          0.4468 
       20650.00          0.0700          0.4529 
       20700.00          0.0626          0.4484 
       20750.00          0.1841          0.4366 
       20800.00          0.1516          0.4312 
       20850.00          0.1714          0.4041 
       20900.00          0.2010          0.4119 
       20950.00          0.1458          0.4382 
       21000.00          0.1549          0.4335 
       21050.00          0.1261          0.4502 
       21100.00          0.1483          0.4468 
       21150.00          0.1260          0.4432 
       21200.00          0.1193          0.4378 
       21250.00          0.0943          0.4523 
       21300.00          0.1230          0.4728 
       21350.00          0.0522          0.4652 
       21400.00          0.1325          0.4507 
       21450.00          0.1419          0.4481 
       21500.00          0.0950          0.4622 
       21550.00          0.1301          0.4600 
       21600.00          0.1195          0.4692 
       21650.00          0.1304          0.4428 
       21700.00          0.1383          0.4349 
       21750.00          0.0856          0.4669 
       21800.00          0.1148          0.4414 
       21850.00          0.1418          0.4264 
       21900.00          0.1431          0.4318 
       21950.00          0.0762          0.4458 
       22000.00          0.0515          0.4463 
       22050.00          0.0792          0.4397 
       22100.00          0.0749          0.4449 
       22150.00          0.0800          0.4464 
       22200.00          0.0609          0.4303 
       22250.00          0.0659          0.4356 
       22300.00          0.0710          0.4325 
       22350.00          0.0652          0.4442 
       22400.00          0.0684          0.4336 
       22450.00          0.0717          0.4452 
       22500.00          0.0716          0.4426 
       22550.00          0.0732          0.4462 
       22600.00          0.0645          0.4467 
       22650.00          0.0655          0.4436 
       22700.00          0.0453          0.4401 
       22750.00          0.0790          0.4472 
       22800.00          0.0577          0.4454 
       22850.00          0.0604          0.4577 
       22900.00          0.0656          0.4404 
       22950.00          0.0771          0.4405 
       23000.00          0.0567          0.4475 
       23050.00          0.0811          0.4396 
       23100.00          0.0716          0.4494 
       23150.00          0.0361          0.4495 
       23200.00          0.0943          0.4413 
       23250.00          0.0820          0.4396 
       23300.00          0.1036          0.4352 
       23350.00          0.0453          0.4511 
       23400.00          0.0520          0.4375 
       23450.00          0.0588          0.4474 
       23500.00          0.0520          0.4430 
       23550.00          0.0786          0.4293 
       23600.00          0.0845          0.4419 
       23650.00          0.1036          0.4440 
       23700.00          0.0745          0.4612 
       23750.00          0.0822          0.4459 
       23800.00          0.0465          0.4475 
       23850.00          0.0654          0.4420 
       23900.00          0.0524          0.4436 
       23950.00          0.0699          0.4538 
       24000.00          0.0688          0.4400 
       24050.00          0.0422          0.4453 
       24100.00          0.0515          0.4415 
       24150.00          0.1597          0.4098 
       24200.00          0.0905          0.4445 
       24250.00          0.1020          0.4433 
       24300.00          0.0786          0.4450 
       24350.00          0.0678          0.4544 
       24400.00          0.0372          0.4438 
       24450.00          0.0610          0.4482 
       24500.00          0.0969          0.4379 
       24550.00          0.0799          0.4499 
       24600.00          0.0668          0.4563 
       24650.00          0.0880          0.4425 
       24700.00          0.0720          0.4560 
       24750.00          0.0635          0.4364 
       24800.00          0.0825          0.4494 
       24850.00          0.0867          0.4416 
       24900.00          0.0694          0.4413 
       24950.00          0.0701          0.4466 
       25000.00          0.0604          0.4508 
       25050.00          0.0572          0.4444 
       25100.00          0.1167          0.4225 
       25150.00          0.1023          0.4453 
       25200.00          0.0993          0.4431 
       25250.00          0.0982          0.4375 
       25300.00          0.0542          0.4602 
       25350.00          0.0867          0.4387 
       25400.00          0.0697          0.4385 
       25450.00          0.0869          0.4425 
       25500.00          0.0517          0.4473 
       25550.00          0.0440          0.4469 
       25600.00          0.0648          0.4432 
       25650.00          0.1015          0.4434 
       25700.00          0.0667          0.4229 
       25750.00          0.0720          0.4437 
       25800.00          0.0740          0.4344 
       25850.00          0.0535          0.4371 
       25900.00          0.0617          0.4477 
       25950.00          0.0563          0.4586 
       26000.00          0.0592          0.4475 
       26050.00          0.0539          0.4369 
       26100.00          0.0384          0.4672 
       26150.00          0.0644          0.4526 
       26200.00          0.0805          0.4367 
       26250.00          0.0534          0.4415 
       26300.00          0.0650          0.4562 
       26350.00          0.0630          0.4430 
       26400.00          0.0681          0.4490 
       26450.00          0.0592          0.4532 
       26500.00          0.0499          0.4441 
       26550.00          0.0750          0.4402 
       26600.00          0.0740          0.4478 
       26650.00          0.0616          0.4523 
       26700.00          0.1055          0.4382 
       26750.00          0.0726          0.4348 
       26800.00          0.0529          0.4498 
       26850.00          0.0711          0.4321 
       26900.00          0.0549          0.4383 
       26950.00          0.0525          0.4412 
       27000.00          0.1317          0.4278 
       27050.00          0.0873          0.4471 
       27100.00          0.0765          0.4385 
       27150.00          0.0534          0.4428 
       27200.00          0.0610          0.4400 
       27250.00          0.0586          0.4432 
       27300.00          0.0668          0.4413 
       27350.00          0.0702          0.4483 
       27400.00          0.0556          0.4422 
       27450.00          0.0481          0.4626 
       27500.00          0.0607          0.4468 
       27550.00          0.0833          0.4387 
       27600.00          0.0900          0.4342 
       27650.00          0.0666          0.4410 
       27700.00          0.0650          0.4419 
       27750.00          0.0682          0.4339 
       27800.00          0.0763          0.4355 
       27850.00          0.1225          0.4377 
       27900.00          0.1191          0.4286 
       27950.00          0.1024          0.4303 
       28000.00          0.1256          0.4284 
       28050.00          0.0710          0.4450 
       28100.00          0.0730          0.4574 
       28150.00          0.1068          0.4333 
       28200.00          0.0825          0.4479 
       28250.00          0.0734          0.4398 
       28300.00          0.0690          0.4406 
       28350.00          0.0687          0.4352 
       28400.00          0.0403          0.4422 
       28450.00          0.0972          0.4363 
       28500.00          0.0792          0.4322 
       28550.00          0.0485          0.4405 
       28600.00          0.0685          0.4498 
       28650.00          0.0548          0.4483 
       28700.00          0.0579          0.4468 
       28750.00          0.0446          0.4379 
       28800.00          0.0694          0.4494 
       28850.00          0.1110          0.4263 
       28900.00          0.1409          0.4276 
       28950.00          0.0929          0.4412 
       29000.00          0.0527          0.4407 
       29050.00          0.0275          0.4577 
       29100.00          0.0503          0.4465 
       29150.00          0.0909          0.4288 
       29200.00          0.0890          0.4377 
       29250.00          0.0847          0.4282 
       29300.00          0.1113          0.4254 
       29350.00          0.1069          0.4359 
       29400.00          0.1141          0.4399 
       29450.00          0.1203          0.4433 
       29500.00          0.0967          0.4382 
       29550.00          0.0750          0.4388 
       29600.00          0.0814          0.4516 
       29650.00          0.0671          0.4475 
       29700.00          0.0680          0.4497 
       29750.00          0.0809          0.4359 
       29800.00          0.1201          0.4359 
       29850.00          0.0989          0.4262 
       29900.00          0.0769          0.4460 
       29950.00          0.0928          0.4356 
       30000.00          0.0856          0.4365 
       30050.00          0.0574          0.4372 
       30100.00          0.0619          0.4357 
       30150.00          0.0521          0.4413 
       30200.00          0.0639          0.4388 
       30250.00          0.0483          0.4496 
       30300.00          0.0613          0.4411 
       30350.00          0.0705          0.4344 
       30400.00          0.0465          0.4330 
       30450.00          0.0586          0.4459 
       30500.00          0.0279          0.4391 
       30550.00          0.0668          0.4439 
       30600.00          0.0757          0.4339 
       30650.00          0.1332          0.4225 
       30700.00          0.0753          0.4314 
       30750.00          0.0763          0.4469 
       30800.00          0.0932          0.4436 
       30850.00          0.0848          0.4310 
       30900.00          0.0822          0.4450 
       30950.00          0.0346          0.4441 
       31000.00          0.0969          0.4463 
       31050.00          0.0716          0.4411 
       31100.00          0.0587          0.4388 
       31150.00          0.0956          0.4727 
       31200.00          0.0952          0.4539 
       31250.00          0.1028          0.4398 
       31300.00          0.1366          0.4139 
       31350.00          0.1108          0.4441 
       31400.00          0.0859          0.4463 
       31450.00          0.0363          0.4503 
       31500.00          0.0713          0.4486 
       31550.00          0.0629          0.4625 
       31600.00          0.0508          0.4505 
       31650.00          0.0278          0.4534 
       31700.00          0.0769          0.4466 
       31750.00          0.0740          0.4355 
       31800.00          0.0549          0.4407 
       31850.00          0.0524          0.4442 
       31900.00          0.0877          0.4353 
       31950.00          0.1129          0.4327 
       32000.00          0.0392          0.4449 
       32050.00          0.0925          0.4351 
       32100.00          0.0663          0.4381 
       32150.00          0.0574          0.4395 
       32200.00          0.0597          0.4580 
       32250.00          0.0844          0.4392 
       32300.00          0.0623          0.4353 
       32350.00          0.0585          0.4509 
       32400.00          0.0661          0.4574 
       32450.00          0.0637          0.4391 
       32500.00          0.0527          0.4450 
       32550.00          0.0600          0.4440 
       32600.00          0.0853          0.4558 
       32650.00          0.0819          0.4403 
       32700.00          0.0704          0.4569 
       32750.00          0.0892          0.4373 
       32800.00          0.0726          0.4383 
       32850.00          0.0785          0.4401 
       32900.00          0.0416          0.4489 
       32950.00          0.0566          0.4461 
       33000.00          0.0530          0.4439 
       33050.00          0.0717          0.4392 
       33100.00          0.0741          0.4424 
       33150.00          0.0866          0.4360 
       33200.00          0.0652          0.4452 
       33250.00          0.0683          0.4464 
       33300.00          0.0613          0.4450 
       33350.00          0.0335          0.4435 
       33400.00          0.0518          0.4492 
       33450.00          0.0306          0.4416 
       33500.00          0.0917          0.4227 
       33550.00          0.0904          0.4362 
       33600.00          0.0770          0.4379 
       33650.00          0.0774          0.4410 
       33700.00          0.0764          0.4362 
       33750.00          0.0701          0.4380 
       33800.00          0.0588          0.4581 
       33850.00          0.1040          0.4356 
       33900.00          0.0847          0.4471 
       33950.00          0.0296          0.4448 
       34000.00          0.0891          0.4369 
       34050.00          0.0576          0.4450 
       34100.00          0.0455          0.4474 
       34150.00          0.0261          0.4420 
       34200.00          0.0301          0.4497 
       34250.00          0.0505          0.4546 
       34300.00          0.0470          0.4554 
       34350.00          0.0843          0.4175 
       34400.00          0.0898          0.4321 
       34450.00          0.0684          0.4554 
       34500.00          0.0478          0.4523 
       34550.00          0.0356          0.4623 
       34600.00          0.0399          0.4546 
       34650.00          0.0508          0.4449 
       34700.00          0.0510          0.4374 
       34750.00          0.0474          0.4494 
       34800.00          0.0922          0.4375 
       34850.00          0.0717          0.4348 
       34900.00          0.0623          0.4442 
       34950.00          0.0701          0.4401 
       35000.00          0.0261          0.4475 
       35050.00          0.0637          0.4423 
       35100.00          0.0668          0.4368 
       35150.00          0.0908          0.4427 
       35200.00          0.0622          0.4493 
       35250.00          0.0581          0.4484 
       35300.00          0.0441          0.4518 
       35350.00          0.1232          0.4134 
       35400.00          0.1003          0.4480 
       35450.00          0.0703          0.4428 
       35500.00          0.0734          0.4501 
       35550.00          0.0898          0.4417 
       35600.00          0.1191          0.4246 
       35650.00          0.0661          0.4398 
       35700.00          0.0715          0.4350 
       35750.00          0.0772          0.4514 
       35800.00          0.0785          0.4458 
       35850.00          0.0703          0.4419 
       35900.00          0.0537          0.4498 
       35950.00          0.0717          0.4437 
       36000.00          0.0653          0.4416 
       36050.00          0.0690          0.4337 
       36100.00          0.0508          0.4416 
       36150.00          0.0811          0.4506 
       36200.00          0.0550          0.4530 
       36250.00          0.0548          0.4442 
       36300.00          0.0370          0.4559 
       36350.00          0.0757          0.4458 
       36400.00          0.0811          0.4455 
       36450.00          0.0639          0.4435 
       36500.00          0.0400          0.4473 
       36550.00          0.0522          0.4483 
       36600.00          0.0578          0.4518 
       36650.00          0.0421          0.4518 
       36700.00          0.0345          0.4530 
       36750.00          0.0956          0.4370 
       36800.00          0.0516          0.4486 
       36850.00          0.0555          0.4461 
       36900.00          0.0832          0.4522 
       36950.00          0.0769          0.4364 
       37000.00          0.0624          0.4375 
       37050.00          0.0900          0.4383 
       37100.00          0.0623          0.4458 
       37150.00          0.1046          0.4344 
       37200.00          0.0706          0.4392 
       37250.00          0.1000          0.4356 
       37300.00          0.0659          0.4559 
       37350.00          0.0361          0.4503 
       37400.00          0.0250          0.4462 
       37450.00          0.0677          0.4452 
       37500.00          0.0627          0.4381 
       37550.00          0.0930          0.4428 
       37600.00          0.0455          0.4450 
       37650.00          0.0929          0.4387 
       37700.00          0.0563          0.4462 
       37750.00          0.0641          0.4376 
       37800.00          0.0398          0.4584 
       37850.00          0.0592          0.4410 
       37900.00          0.1132          0.4293 
       37950.00          0.0488          0.4448 
       38000.00          0.0443          0.4445 
       38050.00          0.0844          0.4426 
       38100.00          0.0697          0.4366 
       38150.00          0.0679          0.4380 
       38200.00          0.0506          0.4442 
       38250.00          0.0496          0.4381 
       38300.00          0.0784          0.4445 
       38350.00          0.0536          0.4458 
       38400.00          0.0798          0.4411 
       38450.00          0.0720          0.4362 
       38500.00          0.0776          0.4364 
       38550.00          0.0915          0.4487 
       38600.00          0.0683          0.4404 
       38650.00          0.0325          0.4491 
       38700.00          0.0375          0.4411 
       38750.00          0.0962          0.4377 
       38800.00          0.0951          0.4357 
       38850.00          0.0623          0.4461 
       38900.00          0.0681          0.4407 
       38950.00          0.0595          0.4494 
       39000.00          0.1020          0.4342 
       39050.00          0.0868          0.4363 
       39100.00          0.0584          0.4409 
       39150.00          0.0806          0.4444 
       39200.00          0.0957          0.4413 
       39250.00          0.0486          0.4425 
       39300.00          0.0435          0.4471 
       39350.00          0.0360          0.4478 
       39400.00          0.0809          0.4370 
       39450.00          0.0816          0.4461 
       39500.00          0.0650          0.4416 
       39550.00          0.0632          0.4477 
       39600.00          0.0667          0.4534 
       39650.00          0.0821          0.4488 
       39700.00          0.1057          0.4314 
       39750.00          0.0755          0.4431 
       39800.00          0.0298          0.4452 
       39850.00          0.0585          0.4541 
       39900.00          0.0434          0.4625 
       39950.00          0.0879          0.4528 
       40000.00          0.0745          0.4355 
       40050.00          0.0869          0.4432 
       40100.00          0.0588          0.4446 
       40150.00          0.0656          0.4494 
       40200.00          0.0691          0.4457 
       40250.00          0.0762          0.4278 
       40300.00          0.0618          0.4494 
       40350.00          0.0736          0.4411 
       40400.00          0.0425          0.4588 
       40450.00          0.0353          0.4526 
       40500.00          0.0769          0.4489 
       40550.00          0.0597          0.4420 
       40600.00          0.0600          0.4557 
       40650.00          0.0522          0.4479 
       40700.00          0.0846          0.4410 
       40750.00          0.0738          0.4473 
       40800.00          0.0808          0.4480 
       40850.00          0.0729          0.4361 
       40900.00          0.0905          0.4333 
       40950.00          0.0660          0.4452 
       41000.00          0.0716          0.4444 
       41050.00          0.1256          0.4230 
       41100.00          0.0786          0.4364 
       41150.00          0.0557          0.4397 
       41200.00          0.0814          0.4454 
       41250.00          0.0825          0.4385 
       41300.00          0.1245          0.4203 
       41350.00          0.1205          0.4645 
       41400.00          0.1314          0.4560 
       41450.00          0.1532          0.4442 
       41500.00          0.1971          0.4181 
       41550.00          0.1693          0.4279 
       41600.00          0.1600          0.4484 
       41650.00          0.1653          0.4400 
       41700.00          0.0621          0.4515 
       41750.00          0.0584          0.4359 
       41800.00          0.0689          0.4427 
       41850.00          0.0635          0.4423 
       41900.00          0.1156          0.4345 
       41950.00          0.0609          0.4480 
       42000.00          0.0738          0.4464 
       42050.00          0.0673          0.4345 
       42100.00          0.0513          0.4520 
       42150.00          0.0488          0.4579 
       42200.00          0.0532          0.4468 
       42250.00          0.0537          0.4415 
       42300.00          0.1080          0.4353 
       42350.00          0.0722          0.4505 
       42400.00          0.0348          0.4498 
       42450.00          0.0505          0.4575 
       42500.00          0.0681          0.4357 
       42550.00          0.1047          0.4328 
       42600.00          0.0762          0.4462 
       42650.00          0.0880          0.4345 
       42700.00          0.0638          0.4573 
       42750.00          0.0361          0.4576 
       42800.00          0.0368          0.4589 
       42850.00          0.0631          0.4372 
       42900.00          0.0751          0.4427 
       42950.00          0.0433          0.4492 
       43000.00          0.0581          0.4491 
       43050.00          0.0502          0.4532 
       43100.00          0.1069          0.4406 
       43150.00          0.1066          0.4416 
       43200.00          0.1056          0.4444 
       43250.00          0.0766          0.4400 
       43300.00          0.1222          0.4312 
       43350.00          0.0551          0.4476 
       43400.00          0.0613          0.4368 
       43450.00          0.0542          0.4386 
       43500.00          0.0421          0.4513 
       43550.00          0.0569          0.4446 
       43600.00          0.0335          0.4404 
       43650.00          0.0430          0.4382 
       43700.00          0.0309          0.4487 
       43750.00          0.0444          0.4492 
       43800.00          0.0636          0.4475 
       43850.00          0.0396          0.4566 
       43900.00          0.0863          0.4305 
       43950.00          0.0922          0.4404 
       44000.00          0.0552          0.4418 
       44050.00          0.0646          0.4495 
       44100.00          0.0985          0.4456 
       44150.00          0.0708          0.4497 
       44200.00          0.0810          0.4352 
       44250.00          0.0356          0.4332 
       44300.00          0.0695          0.4444 
       44350.00          0.0706          0.4337 
       44400.00          0.0691          0.4405 
       44450.00          0.0650          0.4542 
       44500.00          0.0636          0.4356 
       44550.00          0.0745          0.4434 
       44600.00          0.0564          0.4320 
       44650.00          0.0698          0.4408 
       44700.00          0.0662          0.4420 
       44750.00          0.0565          0.4321 
       44800.00          0.0532          0.4529 
       44850.00          0.0844          0.4467 
       44900.00          0.1008          0.4406 
       44950.00          0.0826          0.4510 
       45000.00          0.0877          0.4306 
       45050.00          0.0252          0.4550 
       45100.00          0.0334          0.4455 
       45150.00          0.0387          0.4500 
       45200.00          0.0336          0.4430 
       45250.00          0.0639          0.4433 
       45300.00          0.0353          0.4522 
       45350.00          0.0638          0.4575 
       45400.00          0.0252          0.4550 
       45450.00          0.0346          0.4569 
       45500.00          0.1294          0.4336 
       45550.00          0.1320          0.4265 
       45600.00          0.0890          0.4501 
       45650.00          0.0471          0.4333 
       45700.00          0.0669          0.4436 
       45750.00          0.0740          0.4534 
       45800.00          0.0466          0.4357 
       45850.00          0.0812          0.4335 
       45900.00          0.0844          0.4372 
       45950.00          0.1345          0.4177 
       46000.00          0.1461          0.4309 
       46050.00          0.0681          0.4353 
       46100.00          0.0619          0.4529 
       46150.00          0.0847          0.4423 
       46200.00          0.0716          0.4482 
       46250.00          0.0822          0.4539 
       46300.00          0.0583          0.4428 
       46350.00          0.1037          0.4466 
       46400.00          0.0542          0.4486 
       46450.00          0.1109          0.4343 
       46500.00          0.0965          0.4294 
       46550.00          0.0997          0.4303 
       46600.00          0.1044          0.4330 
       46650.00          0.0859          0.4520 
       46700.00          0.0549          0.4398 
       46750.00          0.0607          0.4333 
       46800.00          0.0752          0.4594 
       46850.00          0.0495          0.4423 
       46900.00          0.0689          0.4393 
       46950.00          0.1032          0.4415 
       47000.00          0.1261          0.4154 
       47050.00          0.0774          0.4335 
       47100.00          0.0807          0.4237 
       47150.00          0.0683          0.4420 
       47200.00          0.0634          0.4401 
       47250.00          0.0608          0.4417 
       47300.00          0.1124          0.4287 
       47350.00          0.1097          0.4286 
       47400.00          0.0492          0.4445 
       47450.00          0.0687          0.4522 
       47500.00          0.0641          0.4448 
       47550.00          0.0496          0.4510 
       47600.00          0.0957          0.4379 
       47650.00          0.0465          0.4430 
       47700.00          0.0654          0.4293 
       47750.00          0.0884          0.4395 
       47800.00          0.0835          0.4404 
       47850.00          0.0702          0.4382 
       47900.00          0.0572          0.4423 
       47950.00          0.0408          0.4458 
       48000.00          0.0581          0.4351 
       48050.00          0.0596          0.4433 
       48100.00          0.0679          0.4329 
       48150.00          0.1126          0.4247 
       48200.00          0.1306          0.4228 
       48250.00          0.1024          0.4395 
       48300.00          0.0865          0.4282 
       48350.00          0.0728          0.4352 
       48400.00          0.0846          0.4493 
       48450.00          0.1053          0.4325 
       48500.00          0.1064          0.4426 
       48550.00          0.0520          0.4446 
       48600.00          0.0939          0.4348 
       48650.00          0.1494          0.4106 
       48700.00          0.1303          0.4250 
       48750.00          0.0951          0.4426 
       48800.00          0.0842          0.4500 
       48850.00          0.0671          0.4461 
       48900.00          0.0622          0.4446 
       48950.00          0.0627          0.4381 
       49000.00          0.0483          0.4484 
       49050.00          0.0781          0.4461 
       49100.00          0.0876          0.4494 
       49150.00          0.0344          0.4485 
       49200.00          0.0559          0.4425 
       49250.00          0.0869          0.4474 
       49300.00          0.0649          0.4414 
       49350.00          0.0819          0.4355 
       49400.00          0.0488          0.4494 
       49450.00          0.0578          0.4438 
       49500.00          0.0593          0.4378 
       49550.00          0.0681          0.4460 
       49600.00          0.0861          0.4439 
       49650.00          0.0854          0.4379 
       49700.00          0.0338          0.4459 
       49750.00          0.0369          0.4443 
       49800.00          0.0853          0.4503 
       49850.00          0.0395          0.4386 
       49900.00          0.0548          0.4568 
       49950.00          0.0581          0.4417 
       50000.00          0.0633          0.4441 
       50050.00          0.0448          0.4343 
       50100.00          0.1006          0.4278 
       50150.00          0.0986          0.4349 
       50200.00          0.0611          0.4616 
       50250.00          0.0624          0.4373 
       50300.00          0.0651          0.4331 
       50350.00          0.0676          0.4377 
       50400.00          0.0566          0.4498 
       50450.00          0.0645          0.4463 
       50500.00          0.0740          0.4488 
       50550.00          0.0432          0.4441 
       50600.00          0.0436          0.4372 
       50650.00          0.0314          0.4501 
       50700.00          0.0488          0.4569 
       50750.00          0.0774          0.4451 
       50800.00          0.0607          0.4419 
       50850.00          0.0845          0.4431 
       50900.00          0.0638          0.4418 
       50950.00          0.0770          0.4367 
       51000.00          0.0564          0.4517 
       51050.00          0.0624          0.4433 
       51100.00          0.0508          0.4543 
       51150.00          0.0399          0.4482 
       51200.00          0.0464          0.4575 
       51250.00          0.0606          0.4551 
       51300.00          0.0572          0.4478 
       51350.00          0.0627          0.4421 
       51400.00          0.0424          0.4472 
       51450.00          0.0941          0.4361 
       51500.00          0.0950          0.4358 
       51550.00          0.1078          0.4286 
       51600.00          0.0751          0.4422 
       51650.00          0.1103          0.4432 
       51700.00          0.0467          0.4537 
       51750.00          0.0938          0.4439 
       51800.00          0.0359          0.4482 
       51850.00          0.0618          0.4456 
       51900.00          0.0896          0.4371 
       51950.00          0.1006          0.4343 
       52000.00          0.0452          0.4401 
       52050.00          0.0820          0.4444 
       52100.00          0.0900          0.4292 
       52150.00          0.0777          0.4379 
       52200.00          0.0685          0.4389 
       52250.00          0.1405          0.4056 
       52300.00          0.0663          0.4362 
       52350.00          0.0490          0.4457 
       52400.00          0.0622          0.4360 
       52450.00          0.0825          0.4566 
       52500.00          0.0583          0.4431 
       52550.00          0.0716          0.4336 
       52600.00          0.0938          0.4321 
       52650.00          0.0793          0.4322 
       52700.00          0.0811          0.4563 
       52750.00          0.0891          0.4347 
       52800.00          0.1334          0.4266 
       52850.00          0.2865          0.3473 
       52900.00          0.3020          0.3488 
       52950.00          0.2245          0.4085 
       53000.00          0.1650          0.4389 
       53050.00          0.2081          0.4091 
       53100.00          0.1913          0.4219 
       53150.00          0.1856          0.4285 
       53200.00          0.1692          0.4455 
       53250.00          0.2104          0.4124 
       53300.00          0.1829          0.4260 
       53350.00          0.1951          0.4200 
       53400.00          0.1675          0.4243 
       53450.00          0.2070          0.4119 
       53500.00          0.1762          0.4260 
       53550.00          0.1974          0.4255 
       53600.00          0.2032          0.4141 
       53650.00          0.2000          0.4195 
       53700.00          0.1807          0.4278 
       53750.00          0.2111          0.4018 
       53800.00          0.2008          0.4229 
       53850.00          0.2031          0.4190 
       53900.00          0.1262          0.4365 
       53950.00          0.0523          0.4391 
       54000.00          0.0681          0.4436 
       54050.00          0.0430          0.4547 
       54100.00          0.0630          0.4351 
       54150.00          0.0616          0.4344 
       54200.00          0.0544          0.4511 
       54250.00          0.0392          0.4442 
       54300.00          0.0651          0.4413 
       54350.00          0.0742          0.4453 
       54400.00          0.0716          0.4303 
       54450.00          0.0775          0.4575 
       54500.00          0.0842          0.4385 
       54550.00          0.0809          0.4378 
       54600.00          0.0675          0.4385 
       54650.00          0.0830          0.4405 
       54700.00          0.0428          0.4447 
       54750.00          0.0635          0.4386 
       54800.00          0.0825          0.4514 
       54850.00          0.0651          0.4498 
       54900.00          0.1075          0.4288 
       54950.00          0.1010          0.4465 
       55000.00          0.0688          0.4419 
       55050.00          0.0460          0.4461 
       55100.00          0.0712          0.4366 
       55150.00          0.0640          0.4318 
       55200.00          0.0765          0.4404 
       55250.00          0.0555          0.4495 
       55300.00          0.0605          0.4327 
       55350.00          0.1085          0.4346 
       55400.00          0.0236          0.4431 
       55450.00          0.0542          0.4582 
       55500.00          0.0653          0.4452 
       55550.00          0.0614          0.4414 
       55600.00          0.0879          0.4344 
       55650.00          0.0724          0.4432 
       55700.00          0.0487          0.4576 
       55750.00          0.0741          0.4324 
       55800.00          0.0624          0.4364 
       55850.00          0.0647          0.4322 
       55900.00          0.0578          0.4499 
       55950.00          0.0798          0.4304 
       56000.00          0.0561          0.4442 
       56050.00          0.0720          0.4405 
       56100.00          0.0568          0.4424 
       56150.00          0.0606          0.4310 
       56200.00          0.0966          0.4415 
       56250.00          0.0742          0.4452 
       56300.00          0.0471          0.4571 
       56350.00          0.0509          0.4521 
       56400.00          0.0490          0.4313 
       56450.00          0.0356          0.4467 
       56500.00          0.0451          0.4512 
       56550.00          0.0820          0.4183 
       56600.00          0.0825          0.4388 
       56650.00          0.1239          0.4360 
       56700.00          0.0999          0.4407 
       56750.00          0.0732          0.4433 
       56800.00          0.0657          0.4535 
       56850.00          0.1063          0.4272 
       56900.00          0.0767          0.4482 
       56950.00          0.0285          0.4570 
       57000.00          0.0872          0.4477 
       57050.00          0.0773          0.4322 
       57100.00          0.1012          0.4292 
       57150.00          0.1005          0.4426 
       57200.00          0.0320          0.4544 
       57250.00          0.0566          0.4514 
       57300.00          0.0442          0.4600 
       57350.00          0.0821          0.4445 
       57400.00          0.0742          0.4408 
       57450.00          0.0929          0.4497 
       57500.00          0.0818          0.4451 
       57550.00          0.1491          0.4269 
       57600.00          0.1347          0.4275 
       57650.00          0.0655          0.4528 
       57700.00          0.0320          0.4493 
       57750.00          0.0545          0.4423 
       57800.00          0.0671          0.4420 
       57850.00          0.0870          0.4430 
       57900.00          0.0844          0.4453 
       57950.00          0.0892          0.4356 
       58000.00          0.0636          0.4532 
       58050.00          0.1086          0.4362 
       58100.00          0.1436          0.4257 
       58150.00          0.1206          0.4325 
       58200.00          0.1134          0.4307 
       58250.00          0.0607          0.4476 
       58300.00          0.0830          0.4542 
       58350.00          0.1153          0.4363 
       58400.00          0.1020          0.4363 
       58450.00          0.0926          0.4402 
       58500.00          0.0679          0.4437 
       58550.00          0.0698          0.4319 
       58600.00          0.0748          0.4449 
       58650.00          0.0539          0.4511 
       58700.00          0.0795          0.4457 
       58750.00          0.0597          0.4497 
       58800.00          0.0426          0.4448 
       58850.00          0.0320          0.4518 
       58900.00          0.0647          0.4498 
       58950.00          0.0835          0.4473 
       59000.00          0.0664          0.4369 
       59050.00          0.0583          0.4553 
       59100.00          0.0722          0.4409 
       59150.00          0.0821          0.4294 
       59200.00          0.0638          0.4519 
       59250.00          0.0687          0.4462 
       59300.00          0.0861          0.4379 
       59350.00          0.0564          0.4452 
       59400.00          0.0349          0.4472 
       59450.00          0.0311          0.4634 
       59500.00          0.0774          0.4386 
       59550.00          0.0410          0.4501 
       59600.00          0.0787          0.4233 
       59650.00          0.0961          0.4458 
       59700.00          0.0635          0.4280 
       59750.00          0.0709          0.4359 
       59800.00          0.0603          0.4444 
       59850.00          0.0947          0.4373 
       59900.00          0.0812          0.4467 
       59950.00          0.0702          0.4432 
       60000.00          0.0812          0.4416 
       60050.00          0.0710          0.4342 
       60100.00          0.0909          0.4381 
       60150.00          0.1079          0.4274 
       60200.00          0.0828          0.4331 
       60250.00          0.0578          0.4440 
       60300.00          0.0436          0.4507 
       60350.00          0.0329          0.4502 
       60400.00          0.1215          0.4328 
       60450.00          0.1080          0.4381 
       60500.00          0.0691          0.4437 
       60550.00          0.0750          0.4517 
       60600.00          0.0833          0.4371 
       60650.00          0.0389          0.4479 
       60700.00          0.0691          0.4453 
       60750.00          0.0747          0.4483 
       60800.00          0.1241          0.4261 
       60850.00          0.0981          0.4365 
       60900.00          0.0943          0.4338 
       60950.00          0.1889          0.3956 
       61000.00          0.1845          0.4173 
       61050.00          0.1135          0.4706 
       61100.00          0.0968          0.4617 
       61150.00          0.0906          0.4676 
       61200.00          0.1184          0.4632 
       61250.00          0.1280          0.4560 
       61300.00          0.1308          0.4589 
       61350.00          0.1173          0.4439 
       61400.00          0.1424          0.4441 
       61450.00          0.1643          0.4177 
       61500.00          0.1361          0.4338 
       61550.00          0.0676          0.4440 
       61600.00          0.0800          0.4457 
       61650.00          0.0539          0.4429 
       61700.00          0.0368          0.4432 
       61750.00          0.0572          0.4537 
       61800.00          0.1599          0.4129 
       61850.00          0.1196          0.4277 
       61900.00          0.0988          0.4347 
       61950.00          0.0919          0.4439 
       62000.00          0.0535          0.4413 
       62050.00          0.0753          0.4370 
       62100.00          0.0669          0.4430 
       62150.00          0.0893          0.4464 
       62200.00          0.0580          0.4311 
       62250.00          0.0668          0.4354 
       62300.00          0.0625          0.4467 
       62350.00          0.0993          0.4335 
       62400.00          0.0567          0.4449 
       62450.00          0.0645          0.4359 
       62500.00          0.0833          0.4419 
       62550.00          0.0711          0.4427 
       62600.00          0.0660          0.4425 
       62650.00          0.0538          0.4415 
       62700.00          0.0788          0.4485 
       62750.00          0.0638          0.4480 
       62800.00          0.1273          0.4264 
       62850.00          0.0889          0.4365 
       62900.00          0.0493          0.4546 
       62950.00          0.0746          0.4364 
       63000.00          0.0535          0.4445 
       63050.00          0.0657          0.4447 
       63100.00          0.0639          0.4283 
       63150.00          0.0800          0.4410 
       63200.00          0.0786          0.4422 
       63250.00          0.0592          0.4459 
       63300.00          0.0669          0.4497 
       63350.00          0.0602          0.4491 
       63400.00          0.0865          0.4346 
       63450.00          0.1026          0.4326 
       63500.00          0.0721          0.4543 
       63550.00          0.0699          0.4336 
       63600.00          0.0709          0.4442 
       63650.00          0.0793          0.4334 
       63700.00          0.0709          0.4329 
       63750.00          0.0806          0.4346 
       63800.00          0.0715          0.4452 
       63850.00          0.0593          0.4270 
       63900.00          0.0551          0.4386 
       63950.00          0.0792          0.4331 
       64000.00          0.0815          0.4342 
       64050.00          0.0703          0.4563 
       64100.00          0.0625          0.4414 
       64150.00          0.0620          0.4442 
       64200.00          0.0430          0.4467 
       64250.00          0.0606          0.4433 
       64300.00          0.0701          0.4407 
       64350.00          0.0655          0.4508 
       64400.00          0.0905          0.4388 
       64450.00          0.0561          0.4360 
       64500.00          0.0836          0.4434 
       64550.00          0.0878          0.4385 
       64600.00          0.0564          0.4508 
       64650.00          0.0840          0.4512 
       64700.00          0.1301          0.4249 
       64750.00          0.0685          0.4424 
       64800.00          0.0875          0.4462 
       64850.00          0.0681          0.4486 
       64900.00          0.1002          0.4346 
       64950.00          0.0791          0.4409 
       65000.00          0.0581          0.4522 
       65050.00          0.0543          0.4513 
       65100.00          0.0364          0.4400 
       65150.00          0.0630          0.4396 
       65200.00          0.0727          0.4431 
       65250.00          0.0814          0.4419 
       65300.00          0.0782          0.4400 
       65350.00          0.0705          0.4312 
       65400.00          0.0818          0.4414 
       65450.00          0.0734          0.4492 
       65500.00          0.0919          0.4384 
       65550.00          0.1233          0.4305 
       65600.00          0.1006          0.4314 
       65650.00          0.0944          0.4421 
       65700.00          0.0550          0.4509 
       65750.00          0.0558          0.4441 
       65800.00          0.0669          0.4536 
       65850.00          0.0536          0.4497 
       65900.00          0.0703          0.4456 
       65950.00          0.0799          0.4338 
       66000.00          0.1084          0.4412 
       66050.00          0.0480          0.4521 
       66100.00          0.0652          0.4580 
       66150.00          0.0392          0.4447 
       66200.00          0.0548          0.4456 
       66250.00          0.0614          0.4434 
       66300.00          0.0259          0.4495 
       66350.00          0.0320          0.4482 
       66400.00          0.0830          0.4373 
       66450.00          0.0833          0.4440 
       66500.00          0.0870          0.4306 
       66550.00          0.1453          0.4167 
       66600.00          0.0947          0.4408 
       66650.00          0.0408          0.4499 
       66700.00          0.0492          0.4452 
       66750.00          0.1169          0.4328 
       66800.00          0.0653          0.4424 
       66850.00          0.1088          0.4353 
       66900.00          0.1203          0.4375 
       66950.00          0.0743          0.4363 
       67000.00          0.0929          0.4563 
       67050.00          0.0739          0.4448 
       67100.00          0.0902          0.4390 
       67150.00          0.1015          0.4364 
       67200.00          0.0656          0.4546 
       67250.00          0.0173          0.4440 
       67300.00          0.0522          0.4466 
       67350.00          0.0320          0.4564 
       67400.00          0.0338          0.4518 
       67450.00          0.0596          0.4418 
       67500.00          0.0203          0.4540 
       67550.00          0.0561          0.4504 
       67600.00          0.0714          0.4485 
       67650.00          0.0995          0.4302 
       67700.00          0.0605          0.4441 
       67750.00          0.0729          0.4389 
       67800.00          0.0539          0.4461 
       67850.00          0.0640          0.4423 
       67900.00          0.0726          0.4396 
       67950.00          0.0389          0.4505 
       68000.00          0.0543          0.4425 
       68050.00          0.0695          0.4425 
       68100.00          0.0770          0.4397 
       68150.00          0.0345          0.4409 
       68200.00          0.0500          0.4434 
       68250.00          0.0551          0.4563 
       68300.00          0.1288          0.4300 
       68350.00          0.0709          0.4449 
       68400.00          0.0645          0.4538 
       68450.00          0.0491          0.4564 
       68500.00          0.0669          0.4517 
       68550.00          0.0640          0.4491 
       68600.00          0.0781          0.4372 
       68650.00          0.0835          0.4426 
       68700.00          0.0386          0.4490 
       68750.00          0.0649          0.4411 
       68800.00          0.0957          0.4407 
       68850.00          0.0687          0.4534 
       68900.00          0.0708          0.4494 
       68950.00          0.0810          0.4342 
       69000.00          0.0665          0.4419 
       69050.00          0.0609          0.4413 
       69100.00          0.0803          0.4465 
       69150.00          0.0573          0.4574 
       69200.00          0.1031          0.4348 
       69250.00          0.1134          0.4256 
       69300.00          0.1126          0.4279 
       69350.00          0.0650          0.4527 
       69400.00          0.1096          0.4376 
       69450.00          0.0812          0.4481 
       69500.00          0.0779          0.4436 
       69550.00          0.0880          0.4427 
       69600.00          0.0594          0.4424 
       69650.00          0.0540          0.4367 
       69700.00          0.0877          0.4439 
       69750.00          0.0626          0.4374 
       69800.00          0.0852          0.4373 
       69850.00          0.0527          0.4480 
       69900.00          0.0470          0.4425 
       69950.00          0.0744          0.4464 
       70000.00          0.0277          0.4443 
       70050.00          0.0725          0.4470 
       70100.00          0.0487          0.4541 
       70150.00          0.1024          0.4292 
       70200.00          0.1020          0.4404 
       70250.00          0.1209          0.4173 
       70300.00          0.0461          0.4435 
       70350.00          0.0320          0.4411 
       70400.00          0.0661          0.4418 
       70450.00          0.0620          0.4450 
       70500.00          0.0712          0.4378 
       70550.00          0.0933          0.4357 
       70600.00          0.0372          0.4550 
       70650.00          0.0562          0.4504 
       70700.00          0.0752          0.4283 
       70750.00          0.0807          0.4358 
       70800.00          0.0744          0.4448 
       70850.00          0.0772          0.4388 
       70900.00          0.0671          0.4381 
       70950.00          0.1113          0.4287 
       71000.00          0.0872          0.4304 
       71050.00          0.0634          0.4445 
       71100.00          0.0819          0.4399 
       71150.00          0.0559          0.4390 
       71200.00          0.0447          0.4536 
       71250.00          0.0397          0.4508 
       71300.00          0.0556          0.4494 
       71350.00          0.0706          0.4411 
       71400.00          0.0510          0.4514 
       71450.00          0.0470          0.4488 
       71500.00          0.0656          0.4456 
       71550.00          0.0752          0.4369 
       71600.00          0.0616          0.4429 
       71650.00          0.1106          0.4348 
       71700.00          0.0569          0.4520 
       71750.00          0.1174          0.4328 
       71800.00          0.0783          0.4445 
       71850.00          0.0826          0.4564 
       71900.00          0.0914          0.4387 
       71950.00          0.0503          0.4435 
       72000.00          0.0543          0.4443 
       72050.00          0.1006          0.4480 
       72100.00          0.0996          0.4311 
       72150.00          0.0648          0.4511 
       72200.00          0.0603          0.4535 
       72250.00          0.0538          0.4485 
       72300.00          0.0743          0.4402 
       72350.00          0.0751          0.4388 
       72400.00          0.0337          0.4442 
       72450.00          0.0927          0.4581 
       72500.00          0.0617          0.4418 
       72550.00          0.0637          0.4461 
       72600.00          0.0754          0.4417 
       72650.00          0.0595          0.4425 
       72700.00          0.0613          0.4405 
       72750.00          0.0759          0.4367 
       72800.00          0.0614          0.4445 
       72850.00          0.0653          0.4334 
       72900.00          0.0531          0.4424 
       72950.00          0.0662          0.4458 
       73000.00          0.0550          0.4563 
       73050.00          0.0833          0.4321 
       73100.00          0.0724          0.4428 
       73150.00          0.0885          0.4470 
       73200.00          0.0785          0.4470 
       73250.00          0.0740          0.4503 
       73300.00          0.0592          0.4379 
       73350.00          0.0770          0.4295 
       73400.00          0.0629          0.4384 
       73450.00          0.0747          0.4404 
       73500.00          0.0615          0.4501 
       73550.00          0.0788          0.4429 
       73600.00          0.0491          0.4580 
       73650.00          0.0446          0.4497 
       73700.00          0.0709          0.4413 
       73750.00          0.0401          0.4511 
       73800.00          0.0877          0.4352 
       73850.00          0.0722          0.4296 
       73900.00          0.0307          0.4513 
       73950.00          0.0548          0.4507 
       74000.00          0.0401          0.4598 
       74050.00          0.0581          0.4403 
       74100.00          0.0499          0.4547 
       74150.00          0.0405          0.4449 
       74200.00          0.0629          0.4284 
       74250.00          0.0804          0.4458 
       74300.00          0.0492          0.4432 
       74350.00          0.0475          0.4384 
       74400.00          0.1147          0.4419 
       74450.00          0.0742          0.4461 
       74500.00          0.0944          0.4393 
       74550.00          0.0946          0.4354 
       74600.00          0.0553          0.4322 
       74650.00          0.0749          0.4426 
       74700.00          0.0727          0.4475 
       74750.00          0.1027          0.4315 
       74800.00          0.1061          0.4552 
       74850.00          0.1228          0.4393 
       74900.00          0.0545          0.4533 
       74950.00          0.0351          0.4505 
       75000.00          0.0473          0.4485 
       75050.00          0.0608          0.4544 
       75100.00          0.0809          0.4572 
       75150.00          0.0573          0.4376 
       75200.00          0.0646          0.4395 
       75250.00          0.1295          0.4249 
       75300.00          0.0515          0.4455 
       75350.00          0.0786          0.4368 
       75400.00          0.0957          0.4470 
       75450.00          0.0762          0.4411 
       75500.00          0.0585          0.4458 
       75550.00          0.0750          0.4461 
       75600.00          0.0733          0.4451 
       75650.00          0.1178          0.4297 
       75700.00          0.0561          0.4461 
       75750.00          0.0631          0.4489 
       75800.00          0.0497          0.4530 
       75850.00          0.0447          0.4427 
       75900.00          0.0501          0.4423 
       75950.00          0.0555          0.4479 
       76000.00          0.0540          0.4448 
       76050.00          0.0488          0.4473 
       76100.00          0.0901          0.4401 
       76150.00          0.0906          0.4482 
       76200.00          0.0982          0.4397 
       76250.00          0.0590          0.4453 
       76300.00          0.0900          0.4372 
       76350.00          0.1131          0.4340 
       76400.00          0.0870          0.4411 
       76450.00          0.0712          0.4443 
       76500.00          0.0847          0.4264 
       76550.00          0.1045          0.4327 
       76600.00          0.1477          0.4202 
       76650.00          0.1381          0.4238 
       76700.00          0.1056          0.4406 
       76750.00          0.0852          0.4423 
       76800.00          0.0586          0.4489 
       76850.00          0.0586          0.4421 
       76900.00          0.0528          0.4466 
       76950.00          0.0651          0.4362 
       77000.00          0.0618          0.4400 
       77050.00          0.0850          0.4496 
       77100.00          0.0776          0.4381 
       77150.00          0.0703          0.4367 
       77200.00          0.1010          0.4363 
       77250.00          0.0876          0.4465 
       77300.00          0.0959          0.4320 
       77350.00          0.0745          0.4452 
       77400.00          0.0582          0.4429 
       77450.00          0.0557          0.4438 
       77500.00          0.0558          0.4502 
       77550.00          0.0373          0.4458 
       77600.00          0.0635          0.4594 
       77650.00          0.0627          0.4421 
       77700.00          0.0765          0.4372 
       77750.00          0.0563          0.4376 
       77800.00          0.0735          0.4348 
       77850.00          0.0976          0.4425 
       77900.00          0.0807          0.4404 
       77950.00          0.0562          0.4499 
       78000.00          0.0690          0.4493 
       78050.00          0.0465          0.4576 
       78100.00          0.0605          0.4383 
       78150.00          0.0888          0.4349 
       78200.00          0.0517          0.4483 
       78250.00          0.0683          0.4472 
       78300.00          0.0806          0.4324 
       78350.00          0.0789          0.4502 
       78400.00          0.0592          0.4416 
       78450.00          0.0656          0.4609 
       78500.00          0.0497          0.4457 
       78550.00          0.0516          0.4453 
       78600.00          0.1393          0.4265 
       78650.00          0.0686          0.4694 
       78700.00          0.1078          0.4300 
       78750.00          0.1178          0.4185 
       78800.00          0.0486          0.4468 
       78850.00          0.0781          0.4646 
       78900.00          0.0683          0.4517 
       78950.00          0.1289          0.4527 
       79000.00          0.1967          0.4136 
       79050.00          0.2042          0.4158 
       79100.00          0.2106          0.3902 
       79150.00          0.2048          0.4160 
       79200.00          0.1902          0.4248 
       79250.00          0.1411          0.4427 
       79300.00          0.0810          0.4628 
       79350.00          0.0705          0.4437 
       79400.00          0.0672          0.4432 
       79450.00          0.0565          0.4430 
       79500.00          0.1046          0.4308 
       79550.00          0.1336          0.4248 
       79600.00          0.0578          0.4429 
       79650.00          0.0840          0.4412 
       79700.00          0.0748          0.4322 
       79750.00          0.0673          0.4478 
       79800.00          0.0767          0.4246 
       79850.00          0.0579          0.4399 
       79900.00          0.0402          0.4456 
       79950.00          0.0426          0.4493 
       80000.00          0.0332          0.4404 
       80050.00          0.0450          0.4480 
       80100.00          0.1331          0.4177 
       80150.00          0.0864          0.4452 
       80200.00          0.0645          0.4581 
       80250.00          0.0563          0.4511 
       80300.00          0.0500          0.4437 
       80350.00          0.0603          0.4513 
       80400.00          0.0660          0.4422 
       80450.00          0.0672          0.4368 
       80500.00          0.0635          0.4416 
       80550.00          0.1425          0.4337 
       80600.00          0.1451          0.4270 
       80650.00          0.0833          0.4426 
       80700.00          0.0656          0.4384 
       80750.00          0.0651          0.4459 
       80800.00          0.0620          0.4447 
       80850.00          0.0583          0.4503 
       80900.00          0.0234          0.4485 
       80950.00          0.0717          0.4367 
       81000.00          0.0624          0.4375 
       81050.00          0.0602          0.4404 
       81100.00          0.0370          0.4526 
       81150.00          0.0429          0.4620 
       81200.00          0.0416          0.4633 
       81250.00          0.0500          0.4491 
       81300.00          0.0606          0.4434 
       81350.00          0.0877          0.4417 
       81400.00          0.0742          0.4351 
       81450.00          0.0770          0.4516 
       81500.00          0.0655          0.4573 
       81550.00          0.0557          0.4466 
       81600.00          0.0741          0.4462 
       81650.00          0.0388          0.4449 
       81700.00          0.0364          0.4476 
       81750.00          0.0634          0.4550 
       81800.00          0.0981          0.4387 
       81850.00          0.0740          0.4362 
       81900.00          0.0469          0.4537 
       81950.00          0.0708          0.4397 
       82000.00          0.0652          0.4353 
       82050.00          0.0567          0.4507 
       82100.00          0.0607          0.4347 
       82150.00          0.0734          0.4392 
       82200.00          0.0687          0.4415 
       82250.00          0.0587          0.4450 
       82300.00          0.0371          0.4552 
       82350.00          0.0539          0.4438 
       82400.00          0.0242          0.4470 
       82450.00          0.0694          0.4401 
       82500.00          0.0424          0.4504 
       82550.00          0.0480          0.4469 
       82600.00          0.0491          0.4450 
       82650.00          0.0280          0.4467 
       82700.00          0.0572          0.4500 
       82750.00          0.1264          0.4279 
       82800.00          0.0926          0.4364 
       82850.00          0.0877          0.4474 
       82900.00          0.0646          0.4446 
       82950.00          0.1103          0.4510 
       83000.00          0.0458          0.4511 
       83050.00          0.0449          0.4497 
       83100.00          0.0381          0.4581 
       83150.00          0.0736          0.4361 
       83200.00          0.0902          0.4526 
       83250.00          0.1119          0.4270 
       83300.00          0.0525          0.4492 
       83350.00          0.0514          0.4407 
       83400.00          0.0604          0.4408 
       83450.00          0.0647          0.4463 
       83500.00          0.0462          0.4440 
       83550.00          0.0751          0.4361 
       83600.00          0.0398          0.4427 
       83650.00          0.0556          0.4421 
       83700.00          0.0456          0.4473 
       83750.00          0.0611          0.4470 
       83800.00          0.0661          0.4444 
       83850.00          0.0584          0.4473 
       83900.00          0.0664          0.4456 
       83950.00          0.0670          0.4417 
       84000.00          0.0561          0.4380 
       84050.00          0.0732          0.4462 
       84100.00          0.0705          0.4540 
       84150.00          0.0595          0.4453 
       84200.00          0.0814          0.4549 
       84250.00          0.1559          0.4510 
       84300.00          0.1762          0.4332 
       84350.00          0.1886          0.4189 
       84400.00          0.2127          0.4121 
       84450.00          0.1764          0.4285 
       84500.00          0.2204          0.4154 
       84550.00          0.1728          0.4287 
       84600.00          0.1978          0.4215 
       84650.00          0.1940          0.4171 
       84700.00          0.1923          0.4236 
       84750.00          0.2109          0.4177 
       84800.00          0.1741          0.4256 
       84850.00          0.2259          0.4023 
       84900.00          0.2253          0.4113 
       84950.00          0.2022          0.4223 
       85000.00          0.1923          0.4198 
       85050.00          0.1862          0.4225 
       85100.00          0.1870          0.4266 
       85150.00          0.2113          0.4138 
       85200.00          0.1786          0.4247 
       85250.00          0.2008          0.4157 
       85300.00          0.2237          0.4160 
       85350.00          0.1999          0.4220 
       85400.00          0.2024          0.4105 
       85450.00          0.2101          0.4298 
       85500.00          0.1838          0.4374 
       85550.00          0.2036          0.4058 
       85600.00          0.1822          0.4102 
       85650.00          0.1988          0.4278 
       85700.00          0.2214          0.4004 
       85750.00          0.2069          0.4010 
       85800.00          0.2267          0.4075 
       85850.00          0.1484          0.4301 
       85900.00          0.1824          0.4227 
       85950.00          0.1395          0.4609 
       86000.00          0.1991          0.4095 
       86050.00          0.1486          0.4514 
       86100.00          0.1452          0.4255 
       86150.00          0.0896          0.4297 
       86200.00          0.0867          0.4320 
       86250.00          0.0505          0.4529 
       86300.00          0.0754          0.4422 
       86350.00          0.0722          0.4443 
       86400.00          0.0608          0.4464 
       86450.00          0.1006          0.4465 
       86500.00          0.0591          0.4375 
       86550.00          0.0547          0.4415 
       86600.00          0.0779          0.4502 
       86650.00          0.0864          0.4246 
       86700.00          0.0948          0.4428 
       86750.00          0.0815          0.4556 
       86800.00          0.0849          0.4283 
       86850.00          0.0581          0.4554 
       86900.00          0.0641          0.4387 
       86950.00          0.0668          0.4539 
       87000.00          0.0660          0.4334 
       87050.00          0.0630          0.4362 
       87100.00          0.0658          0.4486 
       87150.00          0.0422          0.4549 
       87200.00          0.0975          0.4448 
       87250.00          0.0850          0.4489 
       87300.00          0.0602          0.4377 
       87350.00          0.0818          0.4461 
       87400.00          0.0709          0.4311 
       87450.00          0.0562          0.4529 
       87500.00          0.0896          0.4323 
       87550.00          0.0595          0.4383 
       87600.00          0.0636          0.4358 
       87650.00          0.0717          0.4417 
       87700.00          0.0902          0.4345 
       87750.00          0.0688          0.4426 
       87800.00          0.1004          0.4317 
       87850.00          0.0715          0.4342 
       87900.00          0.0733          0.4436 
       87950.00          0.0758          0.4341 
       88000.00          0.1032          0.4424 
       88050.00          0.0390          0.4502 
       88100.00          0.0299          0.4451 
       88150.00          0.0698          0.4377 
       88200.00          0.0509          0.4389 
       88250.00          0.1143          0.4390 
       88300.00          0.0808          0.4403 
       88350.00          0.0977          0.4313 
       88400.00          0.0888          0.4417 
       88450.00          0.0891          0.4358 
       88500.00          0.1163          0.4255 
       88550.00          0.0687          0.4510 
       88600.00          0.0512          0.4367 
       88650.00          0.0840          0.4423 
       88700.00          0.0963          0.4306 
       88750.00          0.0469          0.4377 
       88800.00          0.0543          0.4552 
       88850.00          0.0943          0.4371 
       88900.00          0.0660          0.4469 
       88950.00          0.1017          0.4320 
       89000.00          0.0940          0.4370 
       89050.00          0.0561          0.4407 
       89100.00          0.0631          0.4566 
       89150.00          0.0691          0.4484 
       89200.00          0.0658          0.4372 
       89250.00          0.0307          0.4488 
       89300.00          0.0690          0.4497 
       89350.00          0.0711          0.4554 
       89400.00          0.0860          0.4426 
       89450.00          0.0659          0.4429 
       89500.00          0.0383          0.4526 
       89550.00          0.0438          0.4685 
       89600.00          0.0536          0.4556 
       89650.00          0.0751          0.4397 
       89700.00          0.0526          0.4506 
       89750.00          0.0630          0.4487 
       89800.00          0.0267          0.4536 
       89850.00          0.0315          0.4433 
       89900.00          0.0365          0.4406 
       89950.00          0.1004          0.4421 
       90000.00          0.0765          0.4430 
       90050.00          0.0782          0.4538 
       90100.00          0.1461          0.4228 
       90150.00          0.0808          0.4349 
       90200.00          0.0612          0.4501 
       90250.00          0.0924          0.4468 
       90300.00          0.0780          0.4469 
       90350.00          0.0754          0.4418 
       90400.00          0.0907          0.4444 
       90450.00          0.1091          0.4227 
       90500.00          0.0498          0.4550 
       90550.00          0.0801          0.4477 
       90600.00          0.0698          0.4433 
       90650.00          0.0581          0.4566 
       90700.00          0.0518          0.4536 
       90750.00          0.0763          0.4455 
       90800.00          0.0355          0.4406 
       90850.00          0.0445          0.4525 
       90900.00          0.0419          0.4423 
       90950.00          0.0521          0.4529 
       91000.00          0.0315          0.4471 
       91050.00          0.0549          0.4412 
       91100.00          0.0729          0.4531 
       91150.00          0.0745          0.4466 
       91200.00          0.0501          0.4499 
       91250.00          0.0733          0.4463 
       91300.00          0.0500          0.4499 
       91350.00          0.0443          0.4527 
       91400.00          0.0528          0.4437 
       91450.00          0.0614          0.4444 
       91500.00          0.0848          0.4497 
       91550.00          0.0359          0.4502 
       91600.00          0.0254          0.4518 
       91650.00          0.0897          0.4432 
       91700.00          0.0727          0.4393 
       91750.00          0.1010          0.4561 
       91800.00          0.0354          0.4391 
       91850.00          0.0707          0.4501 
       91900.00          0.0670          0.4528 
       91950.00          0.1169          0.4293 
       92000.00          0.0638          0.4512 
       92050.00          0.0319          0.4515 
       92100.00          0.0643          0.4424 
       92150.00          0.0861          0.4399 
       92200.00          0.0939          0.4318 
       92250.00          0.0755          0.4500 
       92300.00          0.0757          0.4492 
       92350.00          0.0798          0.4398 
       92400.00          0.0456          0.4526 
       92450.00          0.1155          0.4361 
       92500.00          0.0904          0.4408 
       92550.00          0.0974          0.4473 
       92600.00          0.0540          0.4367 
       92650.00          0.0749          0.4503 
       92700.00          0.0467          0.4360 
       92750.00          0.0285          0.4388 
       92800.00          0.0351          0.4513 
       92850.00          0.0848          0.4502 
       92900.00          0.0889          0.4518 
       92950.00          0.0769          0.4500 
       93000.00          0.0309          0.4544 
       93050.00          0.0773          0.4492 
       93100.00          0.0557          0.4511 
       93150.00          0.0717          0.4406 
       93200.00          0.0366          0.4463 
       93250.00          0.0456          0.4506 
       93300.00          0.0720          0.4508 
       93350.00          0.1091          0.4262 
       93400.00          0.0937          0.4364 
       93450.00          0.0677          0.4439 
       93500.00          0.1074          0.4323 
       93550.00          0.1035          0.4465 
       93600.00          0.1275          0.4149 
       93650.00          0.1398          0.4246 
       93700.00          0.1492          0.4074 
       93750.00          0.0944          0.4391 
       93800.00          0.0692          0.4383 
       93850.00          0.1116          0.4354 
       93900.00          0.0525          0.4360 
       93950.00          0.0620          0.4448 
       94000.00          0.0668          0.4372 
       94050.00          0.0531          0.4490 
       94100.00          0.0871          0.4434 
       94150.00          0.0814          0.4431 
       94200.00          0.0631          0.4400 
       94250.00          0.1122          0.4396 
       94300.00          0.0627          0.4528 
       94350.00          0.1474          0.4125 
       94400.00          0.0765          0.4377 
       94450.00          0.0678          0.4437 
       94500.00          0.0624          0.4392 
       94550.00          0.0487          0.4496 
       94600.00          0.0625          0.4491 
       94650.00          0.0430          0.4493 
       94700.00          0.0575          0.4301 
       94750.00          0.0493          0.4407 
       94800.00          0.1477          0.4224 
       94850.00          0.0907          0.4492 
       94900.00          0.0865          0.4515 
       94950.00          0.0856          0.4458 
       95000.00          0.0597          0.4539 
       95050.00          0.1184          0.4305 
       95100.00          0.1367          0.4228 
       95150.00          0.0559          0.4585 
       95200.00          0.0482          0.4615 
       95250.00          0.0498          0.4383 
       95300.00          0.0656          0.4452 
       95350.00          0.1070          0.4376 
       95400.00          0.0363          0.4483 
       95450.00          0.0408          0.4440 
       95500.00          0.0432          0.4481 
       95550.00          0.0642          0.4615 
       95600.00          0.0662          0.4412 
       95650.00          0.0571          0.4419 
       95700.00          0.0823          0.4455 
       95750.00          0.0567          0.4486 
       95800.00          0.0719          0.4519 
       95850.00          0.0566          0.4505 
       95900.00          0.0628          0.4365 
       95950.00          0.0953          0.4312 
       96000.00          0.0748          0.4413 
       96050.00          0.0536          0.4368 
       96100.00          0.0822          0.4459 
       96150.00          0.0582          0.4471 
       96200.00          0.0535          0.4542 
       96250.00          0.0556          0.4572 
       96300.00          0.0629          0.4252 
       96350.00          0.0977          0.4504 
       96400.00          0.0608          0.4500 
       96450.00          0.0684          0.4426 
       96500.00          0.0513          0.4421 
       96550.00          0.0764          0.4342 
       96600.00          0.0609          0.4392 
       96650.00          0.0703          0.4465 
       96700.00          0.0406          0.4335 
       96750.00          0.0748          0.4518 
       96800.00          0.0825          0.4501 
       96850.00          0.0908          0.4474 
       96900.00          0.1456          0.4236 
       96950.00          0.0859          0.4420 
       97000.00          0.0613          0.4385 
       97050.00          0.1056          0.4372 
       97100.00          0.0773          0.4450 
       97150.00          0.0819          0.4439 
       97200.00          0.0701          0.4549 
       97250.00          0.0777          0.4357 
       97300.00          0.1055          0.4411 
       97350.00          0.0306          0.4449 
       97400.00          0.0562          0.4462 
       97450.00          0.0462          0.4490 
       97500.00          0.0259          0.4470 
       97550.00          0.0633          0.4589 
       97600.00          0.0708          0.4528 
       97650.00          0.0599          0.4514 
       97700.00          0.0554          0.4525 
       97750.00          0.0768          0.4402 
       97800.00          0.1319          0.4285 
       97850.00          0.0894          0.4303 
       97900.00          0.0913          0.4334 
       97950.00          0.0586          0.4495 
       98000.00          0.0791          0.4541 
       98050.00          0.0724          0.4437 
       98100.00          0.0859          0.4413 
       98150.00          0.0625          0.4358 
       98200.00          0.0605          0.4392 
       98250.00          0.0733          0.4438 
       98300.00          0.0597          0.4322 
       98350.00          0.0536          0.4435 
       98400.00          0.0506          0.4378 
       98450.00          0.0791          0.4355 
       98500.00          0.0572          0.4446 
       98550.00          0.0742          0.4457 
       98600.00          0.0677          0.4459 
       98650.00          0.0483          0.4392 
       98700.00          0.0554          0.4502 
       98750.00          0.0696          0.4458 
       98800.00          0.0651          0.4335 
       98850.00          0.0758          0.4387 
       98900.00          0.0525          0.4564 
       98950.00          0.0644          0.4323 
       99000.00          0.0483          0.4401 
       99050.00          0.0657          0.4389 
       99100.00          0.0651          0.4433 
       99150.00          0.0813          0.4413 
       99200.00          0.0736          0.4310 
       99250.00          0.0578          0.4449 
       99300.00          0.0979          0.4418 
       99350.00          0.0392          0.4471 
       99400.00          0.0516          0.4488 
       99450.00          0.0511          0.4566 
       99500.00          0.0822          0.4385 
       99550.00          0.0616          0.4441 
       99600.00          0.0415          0.4458 
       99650.00          0.0338          0.4611 
       99700.00          0.0871          0.4380 
       99750.00          0.0454          0.4437 
       99800.00          0.0420          0.4418 
       99850.00          0.0488          0.4597 
       99900.00          0.0631          0.4472 
       99950.00          0.0614          0.4458 
      100000.00          0.0599          0.4402 
