@    xaxis  label "t"
@    yaxis  label "RMSD (nm)"
           0.00          0.0002          0.4517 
          50.00          0.0911          0.4613 
         100.00          0.2061          0.4278 
         150.00          0.1557          0.4582 
         200.00          0.1402          0.4456 
         250.00          0.0937          0.4424 
         300.00          0.0828          0.4604 
         350.00          0.0747          0.4451 
         400.00          0.1093          0.4465 
         450.00          0.1136          0.4449 
         500.00          0.1151          0.4693 
         550.00          0.1342          0.4548 
         600.00          0.1717          0.4441 
         650.00          0.1305          0.4477 
         700.00          0.1259          0.4501 
         750.00          0.1725          0.4299 
         800.00          0.1688          0.4135 
         850.00          0.1148          0.4393 
         900.00          0.0561          0.4554 
         950.00          0.0596          0.4774 
        1000.00          0.0874          0.4661 
        1050.00          0.0755          0.4796 
        1100.00          0.0571          0.4555 
        1150.00          0.0936          0.4455 
        1200.00          0.0924          0.4461 
        1250.00          0.1721          0.4124 
        1300.00          0.1551          0.4224 
        1350.00          0.1060          0.4415 
        1400.00          0.1628          0.4168 
        1450.00          0.1151          0.4237 
        1500.00          0.0659          0.4512 
        1550.00          0.0513          0.4381 
        1600.00          0.1040          0.4333 
        1650.00          0.0934          0.4271 
        1700.00          0.1642          0.4064 
        1750.00          0.0986          0.4379 
        1800.00          0.0430          0.4556 
        1850.00          0.0733          0.4478 
        1900.00          0.0465          0.4446 
        1950.00          0.0616          0.4369 
        2000.00          0.0743          0.4411 
        2050.00          0.1255          0.4298 
        2100.00          0.0883          0.4309 
        2150.00          0.0743          0.4277 
        2200.00          0.1077          0.4349 
        2250.00          0.0652          0.4444 
        2300.00          0.0766          0.4415 
        2350.00          0.0767          0.4493 
        2400.00          0.0617          0.4400 
        2450.00          0.0661          0.4374 
        2500.00          0.0371          0.4509 
        2550.00          0.0458          0.4526 
        2600.00          0.0553          0.4443 
        2650.00          0.0522          0.4517 
        2700.00          0.0497          0.4406 
        2750.00          0.0338          0.4523 
        2800.00          0.0516          0.4448 
        2850.00          0.0580          0.4510 
        2900.00          0.0739          0.4463 
        2950.00          0.0701          0.4357 
        3000.00          0.0424          0.4438 
        3050.00          0.0677          0.4332 
        3100.00          0.0563          0.4353 
        3150.00          0.0454          0.4436 
        3200.00          0.0416          0.4463 
        3250.00          0.0656          0.4463 
        3300.00          0.0670          0.4410 
        3350.00          0.0692          0.4433 
        3400.00          0.0919          0.4323 
        3450.00          0.1283          0.4241 
        3500.00          0.1364          0.4201 
        3550.00          0.0780          0.4418 
        3600.00          0.0589          0.4367 
        3650.00          0.0659          0.4490 
        3700.00          0.0458          0.4452 
        3750.00          0.1162          0.4145 
        3800.00          0.0798          0.4378 
        3850.00          0.0970          0.4307 
        3900.00          0.0665          0.4384 
        3950.00          0.0731          0.4411 
        4000.00          0.0654          0.4417 
        4050.00          0.0793          0.4504 
        4100.00          0.0701          0.4386 
        4150.00          0.0772          0.4373 
        4200.00          0.0999          0.4347 
        4250.00          0.0916          0.4491 
        4300.00          0.0584          0.4455 
        4350.00          0.0693          0.4480 
        4400.00          0.0648          0.4379 
        4450.00          0.0347          0.4465 
        4500.00          0.0504          0.4359 
        4550.00          0.0676          0.4453 
        4600.00          0.0860          0.4519 
        4650.00          0.0826          0.4262 
        4700.00          0.0618          0.4504 
        4750.00          0.0411          0.4575 
        4800.00          0.0613          0.4493 
        4850.00          0.0391          0.4551 
        4900.00          0.0842          0.4386 
        4950.00          0.0728          0.4475 
        5000.00          0.0922          0.4295 
        5050.00          0.0807          0.4378 
        5100.00          0.0791          0.4503 
        5150.00          0.0592          0.4372 
        5200.00          0.0588          0.4393 
        5250.00          0.0661          0.4544 
        5300.00          0.0538          0.4424 
        5350.00          0.1013          0.4284 
        5400.00          0.0792          0.4358 
        5450.00          0.0647          0.4591 
        5500.00          0.0632          0.4478 
        5550.00          0.0492          0.4462 
        5600.00          0.0694          0.4435 
        5650.00          0.0642          0.4298 
        5700.00          0.0662          0.4417 
        5750.00          0.0873          0.4437 
        5800.00          0.0841          0.4300 
        5850.00          0.0749          0.4396 
        5900.00          0.0557          0.4477 
        5950.00          0.0368          0.4378 
        6000.00          0.0657          0.4504 
        6050.00          0.0661          0.4445 
        6100.00          0.0486          0.4507 
        6150.00          0.0946          0.4324 
        6200.00          0.0489          0.4432 
        6250.00          0.0473          0.4332 
        6300.00          0.0298          0.4558 
        6350.00          0.0691          0.4432 
        6400.00          0.0562          0.4495 
        6450.00          0.0660          0.4462 
        6500.00          0.0734          0.4443 
        6550.00          0.0638          0.4306 
        6600.00          0.0665          0.4425 
        6650.00          0.0580          0.4502 
        6700.00          0.0812          0.4366 
        6750.00          0.0659          0.4390 
        6800.00          0.0595          0.4468 
        6850.00          0.0319          0.4509 
        6900.00          0.0762          0.4433 
        6950.00          0.0663          0.4503 
        7000.00          0.0573          0.4358 
        7050.00          0.0569          0.4449 
        7100.00          0.0608          0.4537 
        7150.00          0.0686          0.4475 
        7200.00          0.0861          0.4361 
        7250.00          0.1453          0.4175 
        7300.00          0.1050          0.4325 
        7350.00          0.0756          0.4392 
        7400.00          0.0268          0.4544 
        7450.00          0.0672          0.4348 
        7500.00          0.0657          0.4383 
        7550.00          0.0630          0.4374 
        7600.00          0.0754          0.4310 
        7650.00          0.1234          0.4316 
        7700.00          0.0580          0.4333 
        7750.00          0.0688          0.4453 
        7800.00          0.0862          0.4343 
        7850.00          0.1123          0.4327 
        7900.00          0.0394          0.4519 
        7950.00          0.0658          0.4470 
        8000.00          0.0358          0.4491 
        8050.00          0.0436          0.4392 
        8100.00          0.1263          0.4295 
        8150.00          0.1273          0.4318 
        8200.00          0.1135          0.4248 
        8250.00          0.0896          0.4438 
        8300.00          0.1018          0.4350 
        8350.00          0.0689          0.4499 
        8400.00          0.0582          0.4438 
        8450.00          0.0356          0.4433 
        8500.00          0.1030          0.4322 
        8550.00          0.0803          0.4424 
        8600.00          0.0628          0.4386 
        8650.00          0.0675          0.4313 
        8700.00          0.0951          0.4392 
        8750.00          0.1319          0.4277 
        8800.00          0.1321          0.4229 
        8850.00          0.0603          0.4605 
        8900.00          0.0865          0.4523 
        8950.00          0.0791          0.4345 
        9000.00          0.0989          0.4475 
        9050.00          0.1150          0.4341 
        9100.00          0.0906          0.4368 
        9150.00          0.0648          0.4490 
        9200.00          0.0479          0.4407 
        9250.00          0.0320          0.4462 
        9300.00          0.0434          0.4453 
        9350.00          0.0665          0.4475 
        9400.00          0.0514          0.4399 
        9450.00          0.0470          0.4451 
        9500.00          0.0761          0.4400 
        9550.00          0.0972          0.4315 
        9600.00          0.1165          0.4198 
        9650.00          0.0695          0.4339 
        9700.00          0.1065          0.4331 
        9750.00          0.0427          0.4449 
        9800.00          0.0695          0.4381 
        9850.00          0.0862          0.4322 
        9900.00          0.0684          0.4467 
        9950.00          0.0958          0.4397 
       10000.00          0.1422          0.4152 
       10050.00          0.0663          0.4358 
       10100.00          0.0776          0.4420 
       10150.00          0.0489          0.4477 
       10200.00          0.0579          0.4388 
       10250.00          0.0545          0.4341 
       10300.00          0.0581          0.4363 
       10350.00          0.0737          0.4497 
       10400.00          0.0731          0.4417 
       10450.00          0.0493          0.4405 
       10500.00          0.0630          0.4482 
       10550.00          0.0534          0.4439 
       10600.00          0.0590          0.4498 
       10650.00          0.0797          0.4506 
       10700.00          0.0839          0.4465 
       10750.00          0.0637          0.4521 
       10800.00          0.1291          0.4304 
       10850.00          0.0778          0.4441 
       10900.00          0.0927          0.4324 
       10950.00          0.0577          0.4495 
       11000.00          0.0549          0.4352 
       11050.00          0.1170          0.4347 
       11100.00          0.0448          0.4403 
       11150.00          0.0782          0.4505 
       11200.00          0.0850          0.4339 
       11250.00          0.0342          0.4531 
       11300.00          0.0451          0.4469 
       11350.00          0.0737          0.4412 
       11400.00          0.0777          0.4383 
       11450.00          0.0431          0.4367 
       11500.00          0.0586          0.4478 
       11550.00          0.0933          0.4398 
       11600.00          0.1188          0.4275 
       11650.00          0.0802          0.4544 
       11700.00          0.1358          0.4186 
       11750.00          0.0778          0.4396 
       11800.00          0.1150          0.4244 
       11850.00          0.0907          0.4267 
       11900.00          0.1056          0.4442 
       11950.00          0.0650          0.4469 
       12000.00          0.0916          0.4412 
       12050.00          0.0913          0.4432 
       12100.00          0.0962          0.4351 
       12150.00          0.0745          0.4347 
       12200.00          0.0563          0.4373 
       12250.00          0.0545          0.4406 
       12300.00          0.0738          0.4398 
       12350.00          0.0832          0.4368 
       12400.00          0.1067          0.4354 
       12450.00          0.1167          0.4332 
       12500.00          0.0660          0.4330 
       12550.00          0.0600          0.4466 
       12600.00          0.0523          0.4438 
       12650.00          0.0720          0.4414 
       12700.00          0.0697          0.4540 
       12750.00          0.0681          0.4428 
       12800.00          0.0424          0.4547 
       12850.00          0.1163          0.4373 
       12900.00          0.0651          0.4415 
       12950.00          0.0811          0.4346 
       13000.00          0.0597          0.4393 
       13050.00          0.0594          0.4298 
       13100.00          0.0566          0.4464 
       13150.00          0.0672          0.4423 
       13200.00          0.0421          0.4366 
       13250.00          0.0291          0.4496 
       13300.00          0.0681          0.4510 
       13350.00          0.0644          0.4353 
       13400.00          0.0447          0.4497 
       13450.00          0.0442          0.4425 
       13500.00          0.0535          0.4500 
       13550.00          0.0839          0.4452 
       13600.00          0.1145          0.4339 
       13650.00          0.0773          0.4466 
       13700.00          0.0792          0.4382 
       13750.00          0.0453          0.4582 
       13800.00          0.0591          0.4523 
       13850.00          0.0557          0.4375 
       13900.00          0.0638          0.4472 
       13950.00          0.0419          0.4485 
       14000.00          0.0779          0.4372 
       14050.00          0.0825          0.4430 
       14100.00          0.0686          0.4429 
       14150.00          0.0818          0.4421 
       14200.00          0.0768          0.4401 
       14250.00          0.0585          0.4392 
       14300.00          0.0581          0.4643 
       14350.00          0.0343          0.4545 
       14400.00          0.0316          0.4446 
       14450.00          0.0595          0.4359 
       14500.00          0.0762          0.4457 
       14550.00          0.0685          0.4469 
       14600.00          0.0856          0.4374 
       14650.00          0.0747          0.4390 
       14700.00          0.0699          0.4445 
       14750.00          0.0906          0.4364 
       14800.00          0.0865          0.4483 
       14850.00          0.0915          0.4308 
       14900.00          0.0593          0.4343 
       14950.00          0.0601          0.4538 
       15000.00          0.0660          0.4473 
       15050.00          0.0591          0.4483 
       15100.00          0.0384          0.4520 
       15150.00          0.0497          0.4411 
       15200.00          0.0406          0.4532 
       15250.00          0.0405          0.4536 
       15300.00          0.0518          0.4469 
       15350.00          0.0811          0.4360 
       15400.00          0.0534          0.4430 
       15450.00          0.0780          0.4316 
       15500.00          0.0709          0.4354 
       15550.00          0.1153          0.4282 
       15600.00          0.1024          0.4312 
       15650.00          0.0764          0.4421 
       15700.00          0.1062          0.4258 
       15750.00          0.0734          0.4490 
       15800.00          0.0845          0.4384 
       15850.00          0.0535          0.4378 
       15900.00          0.1010          0.4413 
       15950.00          0.0751          0.4403 
       16000.00          0.0882          0.4484 
       16050.00          0.0824          0.4255 
       16100.00          0.0668          0.4453 
       16150.00          0.0610          0.4529 
       16200.00          0.0848          0.4492 
       16250.00          0.0537          0.4501 
       16300.00          0.0523          0.4564 
       16350.00          0.0230          0.4467 
       16400.00          0.0544          0.4521 
       16450.00          0.0522          0.4445 
       16500.00          0.0953          0.4397 
       16550.00          0.0521          0.4460 
       16600.00          0.0666          0.4290 
       16650.00          0.0667          0.4542 
       16700.00          0.0522          0.4445 
       16750.00          0.0389          0.4559 
       16800.00          0.0315          0.4551 
       16850.00          0.0380          0.4454 
       16900.00          0.0512          0.4345 
       16950.00          0.0714          0.4477 
       17000.00          0.0557          0.4513 
       17050.00          0.0570          0.4493 
       17100.00          0.0423          0.4406 
       17150.00          0.0660          0.4416 
       17200.00          0.0290          0.4483 
       17250.00          0.0606          0.4536 
       17300.00          0.0794          0.4537 
       17350.00          0.0862          0.4357 
       17400.00          0.0447          0.4511 
       17450.00          0.0926          0.4398 
       17500.00          0.0546          0.4487 
       17550.00          0.0641          0.4527 
       17600.00          0.0527          0.4432 
       17650.00          0.0528          0.4380 
       17700.00          0.0414          0.4537 
       17750.00          0.0867          0.4437 
       17800.00          0.0834          0.4406 
       17850.00          0.0884          0.4418 
       17900.00          0.0601          0.4473 
       17950.00          0.0507          0.4440 
       18000.00          0.0863          0.4399 
       18050.00          0.0510          0.4413 
       18100.00          0.0603          0.4658 
       18150.00          0.0596          0.4367 
       18200.00          0.0716          0.4422 
       18250.00          0.0420          0.4604 
       18300.00          0.0546          0.4485 
       18350.00          0.0707          0.4447 
       18400.00          0.0682          0.4429 
       18450.00          0.0625          0.4471 
       18500.00          0.0379          0.4443 
       18550.00          0.0927          0.4442 
       18600.00          0.0420          0.4457 
       18650.00          0.0614          0.4387 
       18700.00          0.0933          0.4367 
       18750.00          0.0778          0.4380 
       18800.00          0.0728          0.4443 
       18850.00          0.0932          0.4454 
       18900.00          0.0647          0.4430 
       18950.00          0.0980          0.4434 
       19000.00          0.0897          0.4428 
       19050.00          0.0835          0.4449 
       19100.00          0.0985          0.4455 
       19150.00          0.0524          0.4573 
       19200.00          0.0863          0.4437 
       19250.00          0.1456          0.4135 
       19300.00          0.0628          0.4435 
       19350.00          0.0750          0.4458 
       19400.00          0.0522          0.4466 
       19450.00          0.0393          0.4421 
       19500.00          0.0852          0.4385 
       19550.00          0.0746          0.4558 
       19600.00          0.0562          0.4387 
       19650.00          0.0415          0.4488 
       19700.00          0.0702          0.4474 
       19750.00          0.0692          0.4476 
       19800.00          0.0588          0.4527 
       19850.00          0.0658          0.4489 
       19900.00          0.0953          0.4447 
       19950.00          0.0599          0.4422 
       20000.00          0.0509          0.4486 
       20050.00          0.0642          0.4458 
       20100.00          0.0655          0.4401 
       20150.00          0.0844          0.4498 
       20200.00          0.0732          0.4531 
       20250.00          0.0776          0.4374 
       20300.00          0.0479          0.4445 
       20350.00          0.0732          0.4356 
       20400.00          0.0673          0.4557 
       20450.00          0.0703          0.4315 
       20500.00          0.0553          0.4430 
       20550.00          0.0573          0.4392 
       20600.00          0.0688          0.4328 
       20650.00          0.0864          0.4520 
       20700.00          0.0743          0.4491 
       20750.00          0.0620          0.4419 
       20800.00          0.0483          0.4507 
       20850.00          0.0682          0.4376 
       20900.00          0.0535          0.4450 
       20950.00          0.0581          0.4490 
       21000.00          0.0740          0.4378 
       21050.00          0.1000          0.4277 
       21100.00          0.0916          0.4462 
       21150.00          0.0778          0.4437 
       21200.00          0.0871          0.4328 
       21250.00          0.0617          0.4376 
       21300.00          0.0665          0.4400 
       21350.00          0.0811          0.4498 
       21400.00          0.0841          0.4408 
       21450.00          0.0593          0.4545 
       21500.00          0.0580          0.4359 
       21550.00          0.0675          0.4317 
       21600.00          0.0831          0.4341 
       21650.00          0.1232          0.4243 
       21700.00          0.0825          0.4388 
       21750.00          0.1082          0.4331 
       21800.00          0.1568          0.4187 
       21850.00          0.1380          0.4266 
       21900.00          0.1432          0.4114 
       21950.00          0.1379          0.4215 
       22000.00          0.0730          0.4385 
       22050.00          0.0907          0.4374 
       22100.00          0.0650          0.4432 
       22150.00          0.0654          0.4468 
       22200.00          0.0977          0.4400 
       22250.00          0.0993          0.4377 
       22300.00          0.0833          0.4464 
       22350.00          0.0496          0.4514 
       22400.00          0.0529          0.4510 
       22450.00          0.0877          0.4436 
       22500.00          0.0544          0.4567 
       22550.00          0.0528          0.4377 
       22600.00          0.0619          0.4407 
       22650.00          0.0475          0.4589 
       22700.00          0.1075          0.4256 
       22750.00          0.0728          0.4399 
       22800.00          0.0683          0.4301 
       22850.00          0.0492          0.4469 
       22900.00          0.0711          0.4443 
       22950.00          0.0900          0.4303 
       23000.00          0.0602          0.4562 
       23050.00          0.0508          0.4537 
       23100.00          0.0417          0.4579 
       23150.00          0.0754          0.4491 
       23200.00          0.0941          0.4403 
       23250.00          0.0486          0.4374 
       23300.00          0.0783          0.4576 
       23350.00          0.0672          0.4376 
       23400.00          0.0427          0.4524 
       23450.00          0.0941          0.4441 
       23500.00          0.0620          0.4365 
       23550.00          0.1331          0.4245 
       23600.00          0.0641          0.4477 
       23650.00          0.0559          0.4431 
       23700.00          0.0570          0.4511 
       23750.00          0.0614          0.4489 
       23800.00          0.0701          0.4478 
       23850.00          0.0810          0.4431 
       23900.00          0.0710          0.4464 
       23950.00          0.0443          0.4516 
       24000.00          0.0526          0.4412 
       24050.00          0.0696          0.4489 
       24100.00          0.0501          0.4532 
       24150.00          0.0564          0.4369 
       24200.00          0.0504          0.4492 
       24250.00          0.0682          0.4525 
       24300.00          0.0625          0.4423 
       24350.00          0.0835          0.4453 
       24400.00          0.0580          0.4407 
       24450.00          0.0813          0.4432 
       24500.00          0.1171          0.4331 
       24550.00          0.0688          0.4439 
       24600.00          0.0849          0.4579 
       24650.00          0.0712          0.4470 
       24700.00          0.0789          0.4589 
       24750.00          0.0825          0.4355 
       24800.00          0.1400          0.4207 
       24850.00          0.0788          0.4393 
       24900.00          0.0744          0.4593 
       24950.00          0.0473          0.4474 
       25000.00          0.0775          0.4239 
       25050.00          0.0684          0.4373 
       25100.00          0.0728          0.4377 
       25150.00          0.0551          0.4462 
       25200.00          0.0906          0.4311 
       25250.00          0.1546          0.4045 
       25300.00          0.1164          0.4346 
       25350.00          0.0510          0.4542 
       25400.00          0.0821          0.4451 
       25450.00          0.0911          0.4352 
       25500.00          0.0720          0.4446 
       25550.00          0.0744          0.4293 
       25600.00          0.0548          0.4534 
       25650.00          0.0910          0.4458 
       25700.00          0.0838          0.4494 
       25750.00          0.1332          0.4280 
       25800.00          0.0680          0.4336 
       25850.00          0.0698          0.4514 
       25900.00          0.0474          0.4340 
       25950.00          0.0801          0.4509 
       26000.00          0.0720          0.4486 
       26050.00          0.0322          0.4406 
       26100.00          0.0577          0.4553 
       26150.00          0.0501          0.4577 
       26200.00          0.0714          0.4367 
       26250.00          0.1320          0.4105 
       26300.00          0.1198          0.4410 
       26350.00          0.0812          0.4440 
       26400.00          0.0591          0.4399 
       26450.00          0.0582          0.4367 
       26500.00          0.0381          0.4584 
       26550.00          0.0429          0.4524 
       26600.00          0.0818          0.4441 
       26650.00          0.0708          0.4539 
       26700.00          0.0359          0.4409 
       26750.00          0.0684          0.4458 
       26800.00          0.0544          0.4531 
       26850.00          0.0777          0.4359 
       26900.00          0.0703          0.4477 
       26950.00          0.0544          0.4412 
       27000.00          0.0695          0.4486 
       27050.00          0.0771          0.4393 
       27100.00          0.0808          0.4394 
       27150.00          0.0652          0.4334 
       27200.00          0.0874          0.4355 
       27250.00          0.1017          0.4340 
       27300.00          0.0567          0.4451 
       27350.00          0.0697          0.4446 
       27400.00          0.0782          0.4469 
       27450.00          0.0748          0.4452 
       27500.00          0.0628          0.4451 
       27550.00          0.0499          0.4515 
       27600.00          0.0447          0.4574 
       27650.00          0.0805          0.4454 
       27700.00          0.0581          0.4379 
       27750.00          0.0664          0.4458 
       27800.00          0.1268          0.4311 
       27850.00          0.0531          0.4540 
       27900.00          0.1004          0.4563 
       27950.00          0.1030          0.4251 
       28000.00          0.1451          0.4175 
       28050.00          0.0728          0.4386 
       28100.00          0.0616          0.4482 
       28150.00          0.0732          0.4264 
       28200.00          0.0694          0.4508 
       28250.00          0.0605          0.4462 
       28300.00          0.1254          0.4270 
       28350.00          0.1047          0.4335 
       28400.00          0.0522          0.4638 
       28450.00          0.0922          0.4408 
       28500.00          0.0706          0.4497 
       28550.00          0.0452          0.4452 
       28600.00          0.0882          0.4467 
       28650.00          0.0758          0.4669 
       28700.00          0.0947          0.4374 
       28750.00          0.0760          0.4391 
       28800.00          0.0971          0.4445 
       28850.00          0.0803          0.4487 
       28900.00          0.0423          0.4428 
       28950.00          0.0448          0.4468 
       29000.00          0.0521          0.4437 
       29050.00          0.0500          0.4475 
       29100.00          0.0748          0.4441 
       29150.00          0.0492          0.4353 
       29200.00          0.0477          0.4430 
       29250.00          0.0943          0.4377 
       29300.00          0.1151          0.4305 
       29350.00          0.0672          0.4436 
       29400.00          0.1142          0.4317 
       29450.00          0.1093          0.4456 
       29500.00          0.0981          0.4358 
       29550.00          0.0560          0.4400 
       29600.00          0.0462          0.4466 
       29650.00          0.0719          0.4456 
       29700.00          0.0768          0.4361 
       29750.00          0.0957          0.4402 
       29800.00          0.0682          0.4502 
       29850.00          0.0770          0.4466 
       29900.00          0.0797          0.4281 
       29950.00          0.0592          0.4514 
       30000.00          0.0517          0.4509 
       30050.00          0.0741          0.4490 
       30100.00          0.0545          0.4513 
       30150.00          0.0860          0.4312 
       30200.00          0.1330          0.4166 
       30250.00          0.1294          0.4354 
       30300.00          0.1408          0.4182 
       30350.00          0.0886          0.4406 
       30400.00          0.0446          0.4496 
       30450.00          0.1047          0.4332 
       30500.00          0.0586          0.4429 
       30550.00          0.0407          0.4483 
       30600.00          0.0598          0.4309 
       30650.00          0.0513          0.4341 
       30700.00          0.0543          0.4371 
       30750.00          0.0831          0.4531 
       30800.00          0.0427          0.4525 
       30850.00          0.1119          0.4353 
       30900.00          0.1359          0.4247 
       30950.00          0.0989          0.4270 
       31000.00          0.0628          0.4537 
       31050.00          0.0488          0.4545 
       31100.00          0.0959          0.4487 
       31150.00          0.0595          0.4549 
       31200.00          0.0498          0.4385 
       31250.00          0.0790          0.4412 
       31300.00          0.0887          0.4477 
       31350.00          0.0757          0.4516 
       31400.00          0.0622          0.4562 
       31450.00          0.0412          0.4386 
       31500.00          0.1001          0.4474 
       31550.00          0.0566          0.4366 
       31600.00          0.0629          0.4394 
       31650.00          0.0685          0.4431 
       31700.00          0.0579          0.4442 
       31750.00          0.0369          0.4489 
       31800.00          0.0640          0.4395 
       31850.00          0.0516          0.4503 
       31900.00          0.0641          0.4549 
       31950.00          0.0693          0.4465 
       32000.00          0.0517          0.4399 
       32050.00          0.0580          0.4470 
       32100.00          0.0929          0.4526 
       32150.00          0.0693          0.4476 
       32200.00          0.0570          0.4331 
       32250.00          0.0736          0.4472 
       32300.00          0.0900          0.4440 
       32350.00          0.0744          0.4418 
       32400.00          0.0576          0.4456 
       32450.00          0.0439          0.4578 
       32500.00          0.0402          0.4443 
       32550.00          0.0625          0.4477 
       32600.00          0.0353          0.4520 
       32650.00          0.0520          0.4294 
       32700.00          0.0623          0.4508 
       32750.00          0.0558          0.4485 
       32800.00          0.0690          0.4437 
       32850.00          0.0810          0.4471 
       32900.00          0.0709          0.4386 
       32950.00          0.0850          0.4399 
       33000.00          0.0767          0.4366 
       33050.00          0.0468          0.4469 
       33100.00          0.0625          0.4550 
       33150.00          0.0859          0.4416 
       33200.00          0.0865          0.4494 
       33250.00          0.0929          0.4448 
       33300.00          0.0831          0.4376 
       33350.00          0.0416          0.4540 
       33400.00          0.0604          0.4366 
       33450.00          0.0397          0.4385 
       33500.00          0.0304          0.4441 
       33550.00          0.0468          0.4462 
       33600.00          0.0641          0.4552 
       33650.00          0.0437          0.4505 
       33700.00          0.0426          0.4533 
       33750.00          0.0658          0.4319 
       33800.00          0.1329          0.4233 
       33850.00          0.0533          0.4516 
       33900.00          0.0443          0.4510 
       33950.00          0.0620          0.4461 
       34000.00          0.0497          0.4525 
       34050.00          0.0663          0.4491 
       34100.00          0.0860          0.4497 
       34150.00          0.1328          0.4212 
       34200.00          0.1100          0.4296 
       34250.00          0.1225          0.4332 
       34300.00          0.0783          0.4377 
       34350.00          0.0630          0.4306 
       34400.00          0.0712          0.4419 
       34450.00          0.0497          0.4520 
       34500.00          0.0530          0.4458 
       34550.00          0.0460          0.4484 
       34600.00          0.0482          0.4476 
       34650.00          0.0440          0.4447 
       34700.00          0.0925          0.4455 
       34750.00          0.0689          0.4419 
       34800.00          0.0598          0.4487 
       34850.00          0.0745          0.4392 
       34900.00          0.0681          0.4498 
       34950.00          0.0718          0.4513 
       35000.00          0.1072          0.4317 
       35050.00          0.0866          0.4487 
       35100.00          0.0611          0.4463 
       35150.00          0.0796          0.4407 
       35200.00          0.0804          0.4450 
       35250.00          0.0451          0.4464 
       35300.00          0.0384          0.4516 
       35350.00          0.0459          0.4471 
       35400.00          0.0398          0.4541 
       35450.00          0.0602          0.4441 
       35500.00          0.0676          0.4342 
       35550.00          0.0652          0.4458 
       35600.00          0.0814          0.4450 
       35650.00          0.0584          0.4464 
       35700.00          0.0632          0.4381 
       35750.00          0.0389          0.4383 
       35800.00          0.0755          0.4408 
       35850.00          0.0636          0.4425 
       35900.00          0.0671          0.4524 
       35950.00          0.0649          0.4460 
       36000.00          0.0385          0.4490 
       36050.00          0.0469          0.4435 
       36100.00          0.0455          0.4517 
       36150.00          0.0517          0.4464 
       36200.00          0.0628          0.4291 
       36250.00          0.0485          0.4453 
       36300.00          0.0669          0.4370 
       36350.00          0.0789          0.4466 
       36400.00          0.0745          0.4434 
       36450.00          0.1246          0.4161 
       36500.00          0.0662          0.4320 
       36550.00          0.0718          0.4429 
       36600.00          0.0688          0.4403 
       36650.00          0.0583          0.4353 
       36700.00          0.1174          0.4461 
       36750.00          0.0407          0.4486 
       36800.00          0.1035          0.4383 
       36850.00          0.0456          0.4477 
       36900.00          0.0975          0.4402 
       36950.00          0.0923          0.4441 
       37000.00          0.0861          0.4417 
       37050.00          0.0893          0.4472 
       37100.00          0.0899          0.4485 
       37150.00          0.0613          0.4419 
       37200.00          0.0515          0.4396 
       37250.00          0.0387          0.4545 
       37300.00          0.0843          0.4320 
       37350.00          0.0772          0.4473 
       37400.00          0.0831          0.4512 
       37450.00          0.0795          0.4435 
       37500.00          0.0859          0.4329 
       37550.00          0.0627          0.4455 
       37600.00          0.0374          0.4523 
       37650.00          0.0339          0.4486 
       37700.00          0.0567          0.4550 
       37750.00          0.0827          0.4408 
       37800.00          0.0374          0.4386 
       37850.00          0.0503          0.4460 
       37900.00          0.0377          0.4439 
       37950.00          0.0688          0.4386 
       38000.00          0.0662          0.4541 
       38050.00          0.0612          0.4561 
       38100.00          0.0562          0.4365 
       38150.00          0.0751          0.4321 
       38200.00          0.0421          0.4476 
       38250.00          0.0474          0.4523 
       38300.00          0.0653          0.4485 
       38350.00          0.0516          0.4498 
       38400.00          0.0330          0.4512 
       38450.00          0.0872          0.4337 
       38500.00          0.0479          0.4508 
       38550.00          0.0517          0.4370 
       38600.00          0.0397          0.4567 
       38650.00          0.0828          0.4463 
       38700.00          0.0492          0.4368 
       38750.00          0.1166          0.4302 
       38800.00          0.0802          0.4404 
       38850.00          0.0693          0.4421 
       38900.00          0.0765          0.4387 
       38950.00          0.0943          0.4382 
       39000.00          0.1087          0.4313 
       39050.00          0.1202          0.4315 
       39100.00          0.0966          0.4394 
       39150.00          0.0929          0.4360 
       39200.00          0.0781          0.4475 
       39250.00          0.0639          0.4353 
       39300.00          0.0951          0.4443 
       39350.00          0.0694          0.4373 
       39400.00          0.0564          0.4469 
       39450.00          0.0641          0.4491 
       39500.00          0.0690          0.4385 
       39550.00          0.0857          0.4369 
       39600.00          0.0939          0.4433 
       39650.00          0.0690          0.4539 
       39700.00          0.0851          0.4430 
       39750.00          0.0822          0.4382 
       39800.00          0.1015          0.4398 
       39850.00          0.0606          0.4378 
       39900.00          0.0708          0.4496 
       39950.00          0.0710          0.4472 
       40000.00          0.1557          0.4195 
       40050.00          0.0597          0.4537 
       40100.00          0.0840          0.4396 
       40150.00          0.0827          0.4334 
       40200.00          0.0594          0.4478 
       40250.00          0.0739          0.4505 
       40300.00          0.0390          0.4518 
       40350.00          0.0697          0.4415 
       40400.00          0.0939          0.4335 
       40450.00          0.1103          0.4336 
       40500.00          0.1328          0.4244 
       40550.00          0.1351          0.4310 
       40600.00          0.1471          0.4200 
       40650.00          0.1476          0.4313 
       40700.00          0.1443          0.4161 
       40750.00          0.1020          0.4294 
       40800.00          0.0923          0.4387 
       40850.00          0.0551          0.4501 
       40900.00          0.0647          0.4477 
       40950.00          0.0568          0.4376 
       41000.00          0.0730          0.4364 
       41050.00          0.0554          0.4414 
       41100.00          0.0395          0.4485 
       41150.00          0.0464          0.4471 
       41200.00          0.0739          0.4459 
       41250.00          0.0251          0.4459 
       41300.00          0.0671          0.4535 
       41350.00          0.0468          0.4393 
       41400.00          0.0514          0.4352 
       41450.00          0.0946          0.4483 
       41500.00          0.0682          0.4341 
       41550.00          0.0600          0.4437 
       41600.00          0.1095          0.4319 
       41650.00          0.1178          0.4237 
       41700.00          0.1170          0.4229 
       41750.00          0.0559          0.4490 
       41800.00          0.0377          0.4637 
       41850.00          0.0741          0.4477 
       41900.00          0.0744          0.4303 
       41950.00          0.0802          0.4382 
       42000.00          0.0632          0.4390 
       42050.00          0.0608          0.4410 
       42100.00          0.1262          0.4735 
       42150.00          0.1088          0.4356 
       42200.00          0.1284          0.4441 
       42250.00          0.0881          0.4663 
       42300.00          0.1034          0.4385 
       42350.00          0.1015          0.4531 
       42400.00          0.1621          0.4341 
       42450.00          0.1202          0.4638 
       42500.00          0.1341          0.4770 
       42550.00          0.2049          0.4182 
       42600.00          0.1243          0.4506 
       42650.00          0.1571          0.4080 
       42700.00          0.1128          0.4278 
       42750.00          0.1205          0.4445 
       42800.00          0.1359          0.4259 
       42850.00          0.1747          0.3906 
       42900.00          0.0739          0.4363 
       42950.00          0.0761          0.4414 
       43000.00          0.0691          0.4598 
       43050.00          0.0804          0.4506 
       43100.00          0.0520          0.4375 
       43150.00          0.0626          0.4494 
       43200.00          0.0887          0.4617 
       43250.00          0.0853          0.4443 
       43300.00          0.0850          0.4575 
       43350.00          0.1018          0.4268 
       43400.00          0.0879          0.4352 
       43450.00          0.0767          0.4452 
       43500.00          0.0592          0.4416 
       43550.00          0.0526          0.4521 
       43600.00          0.0479          0.4571 
       43650.00          0.0303          0.4547 
       43700.00          0.0389          0.4417 
       43750.00          0.0806          0.4463 
       43800.00          0.0311          0.4495 
       43850.00          0.0485          0.4463 
       43900.00          0.0788          0.4336 
       43950.00          0.0509          0.4305 
       44000.00          0.0652          0.4536 
       44050.00          0.0666          0.4518 
       44100.00          0.0446          0.4513 
       44150.00          0.0703          0.4329 
       44200.00          0.0510          0.4426 
       44250.00          0.0705          0.4396 
       44300.00          0.0620          0.4395 
       44350.00          0.0524          0.4438 
       44400.00          0.0708          0.4406 
       44450.00          0.0530          0.4569 
       44500.00          0.0727          0.4319 
       44550.00          0.0600          0.4380 
       44600.00          0.0553          0.4614 
       44650.00          0.0703          0.4569 
       44700.00          0.0684          0.4482 
       44750.00          0.0685          0.4386 
       44800.00          0.0638          0.4298 
       44850.00          0.0601          0.4418 
       44900.00          0.0655          0.4431 
       44950.00          0.0400          0.4621 
       45000.00          0.0732          0.4409 
       45050.00          0.0820          0.4421 
       45100.00          0.0826          0.4354 
       45150.00          0.0854          0.4293 
       45200.00          0.0429          0.4385 
       45250.00          0.0680          0.4629 
       45300.00          0.0538          0.4457 
       45350.00          0.0767          0.4404 
       45400.00          0.0695          0.4435 
       45450.00          0.0863          0.4575 
       45500.00          0.0814          0.4344 
       45550.00          0.0734          0.4489 
       45600.00          0.0601          0.4467 
       45650.00          0.0571          0.4324 
       45700.00          0.0568          0.4290 
       45750.00          0.0643          0.4468 
       45800.00          0.0785          0.4394 
       45850.00          0.0511          0.4495 
       45900.00          0.0624          0.4285 
       45950.00          0.0700          0.4488 
       46000.00          0.0279          0.4486 
       46050.00          0.0549          0.4423 
       46100.00          0.0703          0.4398 
       46150.00          0.0554          0.4515 
       46200.00          0.0598          0.4440 
       46250.00          0.1123          0.4280 
       46300.00          0.1162          0.4330 
       46350.00          0.1292          0.4263 
       46400.00          0.1193          0.4403 
       46450.00          0.0656          0.4364 
       46500.00          0.0599          0.4490 
       46550.00          0.0660          0.4372 
       46600.00          0.0883          0.4394 
       46650.00          0.0512          0.4487 
       46700.00          0.0786          0.4464 
       46750.00          0.0644          0.4445 
       46800.00          0.0617          0.4526 
       46850.00          0.0523          0.4416 
       46900.00          0.0434          0.4473 
       46950.00          0.0612          0.4503 
       47000.00          0.0362          0.4494 
       47050.00          0.0691          0.4516 
       47100.00          0.0381          0.4556 
       47150.00          0.0333          0.4585 
       47200.00          0.0560          0.4468 
       47250.00          0.0787          0.4350 
       47300.00          0.0782          0.4342 
       47350.00          0.0810          0.4480 
       47400.00          0.0313          0.4472 
       47450.00          0.0338          0.4597 
       47500.00          0.0792          0.4481 
       47550.00          0.0818          0.4444 
       47600.00          0.0635          0.4549 
       47650.00          0.0561          0.4517 
       47700.00          0.0349          0.4497 
       47750.00          0.0555          0.4495 
       47800.00          0.0417          0.4573 
       47850.00          0.0556          0.4498 
       47900.00          0.1131          0.4287 
       47950.00          0.0568          0.4450 
       48000.00          0.0805          0.4329 
       48050.00          0.0745          0.4469 
       48100.00          0.0636          0.4485 
       48150.00          0.0633          0.4391 
       48200.00          0.0534          0.4519 
       48250.00          0.0797          0.4285 
       48300.00          0.0806          0.4435 
       48350.00          0.0969          0.4474 
       48400.00          0.0844          0.4507 
       48450.00          0.0681          0.4359 
       48500.00          0.0600          0.4485 
       48550.00          0.0609          0.4390 
       48600.00          0.0526          0.4473 
       48650.00          0.0534          0.4495 
       48700.00          0.0744          0.4467 
       48750.00          0.0492          0.4402 
       48800.00          0.0392          0.4491 
       48850.00          0.0832          0.4365 
       48900.00          0.0748          0.4512 
       48950.00          0.0580          0.4431 
       49000.00          0.0454          0.4491 
       49050.00          0.0654          0.4467 
       49100.00          0.0618          0.4452 
       49150.00          0.0590          0.4442 
       49200.00          0.0679          0.4346 
       49250.00          0.0660          0.4384 
       49300.00          0.0786          0.4349 
       49350.00          0.0736          0.4503 
       49400.00          0.0951          0.4293 
       49450.00          0.0737          0.4357 
       49500.00          0.0595          0.4411 
       49550.00          0.0783          0.4493 
       49600.00          0.0580          0.4465 
       49650.00          0.0777          0.4373 
       49700.00          0.0438          0.4448 
       49750.00          0.0718          0.4420 
       49800.00          0.0820          0.4259 
       49850.00          0.0723          0.4418 
       49900.00          0.0687          0.4461 
       49950.00          0.0411          0.4518 
       50000.00          0.0820          0.4412 
       50050.00          0.0799          0.4269 
       50100.00          0.0688          0.4394 
       50150.00          0.0734          0.4447 
       50200.00          0.0777          0.4436 
       50250.00          0.0890          0.4463 
       50300.00          0.0826          0.4371 
       50350.00          0.0676          0.4390 
       50400.00          0.0522          0.4423 
       50450.00          0.0768          0.4400 
       50500.00          0.0669          0.4314 
       50550.00          0.0972          0.4334 
       50600.00          0.0826          0.4370 
       50650.00          0.0601          0.4305 
       50700.00          0.0760          0.4412 
       50750.00          0.0792          0.4563 
       50800.00          0.0546          0.4403 
       50850.00          0.0594          0.4588 
       50900.00          0.0447          0.4413 
       50950.00          0.0896          0.4450 
       51000.00          0.0834          0.4274 
       51050.00          0.0777          0.4560 
       51100.00          0.0696          0.4522 
       51150.00          0.0844          0.4377 
       51200.00          0.0800          0.4490 
       51250.00          0.0522          0.4308 
       51300.00          0.0668          0.4510 
       51350.00          0.1176          0.4415 
       51400.00          0.0525          0.4421 
       51450.00          0.1236          0.4137 
       51500.00          0.1313          0.4232 
       51550.00          0.0714          0.4545 
       51600.00          0.0672          0.4433 
       51650.00          0.0665          0.4460 
       51700.00          0.0849          0.4320 
       51750.00          0.0763          0.4396 
       51800.00          0.0704          0.4471 
       51850.00          0.0867          0.4426 
       51900.00          0.0578          0.4443 
       51950.00          0.0714          0.4493 
       52000.00          0.0557          0.4498 
       52050.00          0.1542          0.4121 
       52100.00          0.1151          0.4608 
       52150.00          0.1132          0.4603 
       52200.00          0.0831          0.4556 
       52250.00          0.1506          0.4081 
       52300.00          0.1558          0.4095 
       52350.00          0.1544          0.4339 
       52400.00          0.1727          0.4211 
       52450.00          0.2002          0.4052 
       52500.00          0.1236          0.4710 
       52550.00          0.1750          0.4470 
       52600.00          0.1505          0.4456 
       52650.00          0.1492          0.4304 
       52700.00          0.1453          0.4358 
       52750.00          0.0731          0.4621 
       52800.00          0.0948          0.4343 
       52850.00          0.0606          0.4531 
       52900.00          0.0648          0.4308 
       52950.00          0.0494          0.4426 
       53000.00          0.0534          0.4539 
       53050.00          0.0566          0.4505 
       53100.00          0.0628          0.4356 
       53150.00          0.1115          0.4378 
       53200.00          0.0700          0.4371 
       53250.00          0.0649          0.4469 
       53300.00          0.0577          0.4432 
       53350.00          0.0723          0.4517 
       53400.00          0.0879          0.4263 
       53450.00          0.0682          0.4338 
       53500.00          0.0857          0.4446 
       53550.00          0.0598          0.4485 
       53600.00          0.0992          0.4394 
       53650.00          0.1396          0.4380 
       53700.00          0.1362          0.4322 
       53750.00          0.1160          0.4553 
       53800.00          0.1445          0.4639 
       53850.00          0.1777          0.4362 
       53900.00          0.1090          0.4474 
       53950.00          0.1442          0.4500 
       54000.00          0.1233          0.4703 
       54050.00          0.1130          0.4752 
       54100.00          0.0704          0.4521 
       54150.00          0.1564          0.4181 
       54200.00          0.1453          0.4516 
       54250.00          0.1614          0.4691 
       54300.00          0.1946          0.4646 
       54350.00          0.2290          0.4306 
       54400.00          0.2355          0.4396 
       54450.00          0.2160          0.4502 
       54500.00          0.2439          0.4300 
       54550.00          0.2886          0.4190 
       54600.00          0.2670          0.4300 
       54650.00          0.2608          0.5100 
       54700.00          0.2063          0.4937 
       54750.00          0.2337          0.4576 
       54800.00          0.2428          0.4894 
       54850.00          0.2629          0.4449 
       54900.00          0.2624          0.4381 
       54950.00          0.2767          0.4391 
       55000.00          0.2999          0.3984 
       55050.00          0.3087          0.4545 
       55100.00          0.2839          0.5201 
       55150.00          0.2921          0.4070 
       55200.00          0.3225          0.3759 
       55250.00          0.3261          0.3664 
       55300.00          0.2760          0.4023 
       55350.00          0.2274          0.4513 
       55400.00          0.2468          0.4532 
       55450.00          0.2638          0.4335 
       55500.00          0.2696          0.4285 
       55550.00          0.2897          0.4711 
       55600.00          0.2669          0.5473 
       55650.00          0.2574          0.5140 
       55700.00          0.3015          0.4727 
       55750.00          0.3608          0.4478 
       55800.00          0.3548          0.3908 
       55850.00          0.4098          0.4236 
       55900.00          0.4024          0.4319 
       55950.00          0.4025          0.3841 
       56000.00          0.4252          0.3434 
       56050.00          0.4467          0.3246 
       56100.00          0.4151          0.3116 
       56150.00          0.3971          0.3091 
       56200.00          0.4101          0.3278 
       56250.00          0.4334          0.2945 
       56300.00          0.4263          0.3123 
       56350.00          0.4318          0.2744 
       56400.00          0.4776          0.3210 
       56450.00          0.4548          0.3803 
       56500.00          0.4154          0.4484 
       56550.00          0.3700          0.4302 
       56600.00          0.3483          0.4358 
       56650.00          0.3616          0.4632 
       56700.00          0.2998          0.4704 
       56750.00          0.3184          0.4977 
       56800.00          0.3658          0.4754 
       56850.00          0.3454          0.4951 
       56900.00          0.3399          0.3219 
       56950.00          0.4189          0.3083 
       57000.00          0.4566          0.3097 
       57050.00          0.4567          0.3025 
       57100.00          0.4206          0.3925 
       57150.00          0.4054          0.4327 
       57200.00          0.3928          0.4459 
       57250.00          0.4210          0.3728 
       57300.00          0.4192          0.3749 
       57350.00          0.4450          0.4567 
       57400.00          0.4461          0.4184 
       57450.00          0.4198          0.4132 
       57500.00          0.4257          0.4325 
       57550.00          0.4286          0.4855 
       57600.00          0.4309          0.5095 
       57650.00          0.4203          0.5757 
       57700.00          0.4576          0.5976 
       57750.00          0.4392          0.5617 
       57800.00          0.4174          0.5300 
       57850.00          0.4501          0.5173 
       57900.00          0.4108          0.4360 
       57950.00          0.4485          0.2915 
       58000.00          0.4342          0.3246 
       58050.00          0.4329          0.2390 
       58100.00          0.4259          0.3329 
       58150.00          0.3770          0.3615 
       58200.00          0.3958          0.3608 
       58250.00          0.3933          0.3844 
       58300.00          0.3438          0.4264 
       58350.00          0.3781          0.4202 
       58400.00          0.3939          0.4490 
       58450.00          0.4147          0.4466 
       58500.00          0.4251          0.4152 
       58550.00          0.3998          0.5064 
       58600.00          0.3874          0.5283 
       58650.00          0.4484          0.5178 
       58700.00          0.4233          0.4784 
       58750.00          0.3969          0.4827 
       58800.00          0.4241          0.4313 
       58850.00          0.4472          0.3949 
       58900.00          0.3925          0.3719 
       58950.00          0.4038          0.3363 
       59000.00          0.3574          0.2969 
       59050.00          0.3657          0.3187 
       59100.00          0.4546          0.3541 
       59150.00          0.4087          0.2961 
       59200.00          0.3904          0.4191 
       59250.00          0.3918          0.4303 
       59300.00          0.3461          0.4857 
       59350.00          0.3477          0.4708 
       59400.00          0.3803          0.4948 
       59450.00          0.3674          0.4785 
       59500.00          0.3852          0.5583 
       59550.00          0.3808          0.5825 
       59600.00          0.4031          0.4422 
       59650.00          0.3769          0.3731 
       59700.00          0.4424          0.4563 
       59750.00          0.4667          0.4874 
       59800.00          0.4399          0.4871 
       59850.00          0.4461          0.5173 
       59900.00          0.4336          0.5136 
       59950.00          0.4117          0.4832 
       60000.00          0.3928          0.4662 
       60050.00          0.4335          0.4217 
       60100.00          0.3946          0.5714 
       60150.00          0.4685          0.6177 
       60200.00          0.4230          0.5692 
       60250.00          0.3795          0.4573 
       60300.00          0.4058          0.5133 
       60350.00          0.3721          0.5038 
       60400.00          0.3926          0.5429 
       60450.00          0.3512          0.5272 
       60500.00          0.4121          0.6016 
       60550.00          0.4313          0.6439 
       60600.00          0.4087          0.5831 
       60650.00          0.4192          0.6118 
       60700.00          0.3715          0.5283 
       60750.00          0.3835          0.4994 
       60800.00          0.4097          0.5425 
       60850.00          0.3645          0.5893 
       60900.00          0.4280          0.6553 
       60950.00          0.3861          0.5753 
       61000.00          0.4264          0.6092 
       61050.00          0.4121          0.5998 
       61100.00          0.3827          0.6350 
       61150.00          0.4118          0.6332 
       61200.00          0.4373          0.6553 
       61250.00          0.4757          0.6722 
       61300.00          0.4533          0.6728 
       61350.00          0.4218          0.6241 
       61400.00          0.4372          0.6310 
       61450.00          0.4032          0.6333 
       61500.00          0.4383          0.5679 
       61550.00          0.4830          0.5964 
       61600.00          0.4494          0.5873 
       61650.00          0.4134          0.5063 
       61700.00          0.3515          0.5366 
       61750.00          0.4176          0.4678 
       61800.00          0.3951          0.4369 
       61850.00          0.3621          0.4812 
       61900.00          0.3708          0.5454 
       61950.00          0.3759          0.5643 
       62000.00          0.3383          0.5075 
       62050.00          0.4030          0.5072 
       62100.00          0.3763          0.5708 
       62150.00          0.3728          0.5862 
       62200.00          0.4114          0.5735 
       62250.00          0.3733          0.6010 
       62300.00          0.3627          0.5683 
       62350.00          0.4108          0.6070 
       62400.00          0.4036          0.5971 
       62450.00          0.4391          0.4824 
       62500.00          0.3629          0.3994 
       62550.00          0.3907          0.3922 
       62600.00          0.3947          0.3530 
       62650.00          0.4230          0.5039 
       62700.00          0.3955          0.4449 
       62750.00          0.3946          0.4616 
       62800.00          0.4058          0.4625 
       62850.00          0.4025          0.4239 
       62900.00          0.4324          0.4694 
       62950.00          0.4373          0.5621 
       63000.00          0.3809          0.5346 
       63050.00          0.4341          0.5490 
       63100.00          0.4057          0.5449 
       63150.00          0.4079          0.5363 
       63200.00          0.4438          0.5815 
       63250.00          0.4692          0.6433 
       63300.00          0.4459          0.5591 
       63350.00          0.4489          0.4988 
       63400.00          0.4292          0.5098 
       63450.00          0.4581          0.5325 
       63500.00          0.4792          0.5369 
       63550.00          0.4408          0.5101 
       63600.00          0.4125          0.5069 
       63650.00          0.4432          0.5414 
       63700.00          0.4478          0.4545 
       63750.00          0.4433          0.4698 
       63800.00          0.4263          0.4486 
       63850.00          0.3812          0.4281 
       63900.00          0.3829          0.4630 
       63950.00          0.3903          0.4530 
       64000.00          0.3947          0.5002 
       64050.00          0.4441          0.6220 
       64100.00          0.3939          0.6086 
       64150.00          0.4830          0.6793 
       64200.00          0.4461          0.6478 
       64250.00          0.4673          0.6539 
       64300.00          0.4767          0.6843 
       64350.00          0.4928          0.6840 
       64400.00          0.4762          0.6823 
       64450.00          0.4572          0.6607 
       64500.00          0.4328          0.6918 
       64550.00          0.4607          0.6620 
       64600.00          0.4193          0.5982 
       64650.00          0.4451          0.6388 
       64700.00          0.4096          0.6030 
       64750.00          0.5115          0.6749 
       64800.00          0.4298          0.6495 
       64850.00          0.4832          0.6941 
       64900.00          0.5393          0.7685 
       64950.00          0.4573          0.6903 
       65000.00          0.5368          0.7432 
       65050.00          0.5191          0.6683 
       65100.00          0.4533          0.5748 
       65150.00          0.4441          0.5996 
       65200.00          0.4437          0.5925 
       65250.00          0.3953          0.5676 
       65300.00          0.3935          0.5714 
       65350.00          0.3248          0.5024 
       65400.00          0.3553          0.4833 
       65450.00          0.3857          0.5074 
       65500.00          0.3842          0.4805 
       65550.00          0.4510          0.5078 
       65600.00          0.4289          0.5065 
       65650.00          0.4550          0.5329 
       65700.00          0.3972          0.5436 
       65750.00          0.3923          0.5740 
       65800.00          0.3923          0.5818 
       65850.00          0.4050          0.5354 
       65900.00          0.4499          0.4546 
       65950.00          0.4691          0.4739 
       66000.00          0.4414          0.3501 
       66050.00          0.4171          0.3313 
       66100.00          0.4513          0.3356 
       66150.00          0.4398          0.3806 
       66200.00          0.4433          0.3408 
       66250.00          0.4480          0.3463 
       66300.00          0.4063          0.4407 
       66350.00          0.3595          0.4783 
       66400.00          0.4008          0.4320 
       66450.00          0.3923          0.5236 
       66500.00          0.4052          0.5769 
       66550.00          0.4454          0.6167 
       66600.00          0.4749          0.6239 
       66650.00          0.4961          0.6660 
       66700.00          0.4688          0.5889 
       66750.00          0.5039          0.6838 
       66800.00          0.5154          0.6996 
       66850.00          0.4632          0.6974 
       66900.00          0.4216          0.6669 
       66950.00          0.5075          0.7033 
       67000.00          0.4889          0.7208 
       67050.00          0.4976          0.6569 
       67100.00          0.5071          0.6973 
       67150.00          0.4489          0.5361 
       67200.00          0.4233          0.5531 
       67250.00          0.3665          0.5266 
       67300.00          0.4001          0.5552 
       67350.00          0.4265          0.5756 
       67400.00          0.4377          0.5909 
       67450.00          0.4230          0.5724 
       67500.00          0.4302          0.5847 
       67550.00          0.3811          0.4721 
       67600.00          0.4169          0.4790 
       67650.00          0.3770          0.4363 
       67700.00          0.4085          0.3833 
       67750.00          0.4127          0.3740 
       67800.00          0.4294          0.3412 
       67850.00          0.4093          0.2867 
       67900.00          0.3793          0.3237 
       67950.00          0.4035          0.3071 
       68000.00          0.4015          0.4211 
       68050.00          0.3463          0.4678 
       68100.00          0.3877          0.5213 
       68150.00          0.3429          0.4539 
       68200.00          0.3460          0.4606 
       68250.00          0.4092          0.4604 
       68300.00          0.4477          0.4089 
       68350.00          0.4340          0.4044 
       68400.00          0.4415          0.4728 
       68450.00          0.4141          0.5823 
       68500.00          0.4304          0.5938 
       68550.00          0.4006          0.5045 
       68600.00          0.4302          0.5181 
       68650.00          0.3809          0.4369 
       68700.00          0.4071          0.4381 
       68750.00          0.4190          0.3996 
       68800.00          0.4329          0.4827 
       68850.00          0.3905          0.4427 
       68900.00          0.3886          0.4321 
       68950.00          0.3747          0.4953 
       69000.00          0.4410          0.6218 
       69050.00          0.3877          0.5617 
       69100.00          0.3536          0.4843 
       69150.00          0.3852          0.4695 
       69200.00          0.3839          0.4601 
       69250.00          0.3422          0.4705 
       69300.00          0.3633          0.4791 
       69350.00          0.4109          0.4837 
       69400.00          0.4294          0.4170 
       69450.00          0.4220          0.4428 
       69500.00          0.4113          0.4609 
       69550.00          0.3815          0.4968 
       69600.00          0.3828          0.5784 
       69650.00          0.4424          0.6072 
       69700.00          0.4531          0.6256 
       69750.00          0.4197          0.6799 
       69800.00          0.5527          0.7840 
       69850.00          0.4881          0.7049 
       69900.00          0.4137          0.6218 
       69950.00          0.5046          0.6861 
       70000.00          0.5168          0.6664 
       70050.00          0.4673          0.6438 
       70100.00          0.3862          0.5727 
       70150.00          0.4428          0.6050 
       70200.00          0.4409          0.6533 
       70250.00          0.4327          0.6555 
       70300.00          0.4220          0.6283 
       70350.00          0.4316          0.6566 
       70400.00          0.3959          0.6127 
       70450.00          0.4035          0.6386 
       70500.00          0.3928          0.6105 
       70550.00          0.4146          0.6356 
       70600.00          0.4166          0.5964 
       70650.00          0.4477          0.6223 
       70700.00          0.3806          0.5370 
       70750.00          0.3659          0.4978 
       70800.00          0.3529          0.5010 
       70850.00          0.3670          0.5080 
       70900.00          0.4002          0.5166 
       70950.00          0.3729          0.5073 
       71000.00          0.4097          0.5777 
       71050.00          0.3647          0.5111 
       71100.00          0.3245          0.5463 
       71150.00          0.3912          0.6207 
       71200.00          0.4206          0.6435 
       71250.00          0.4230          0.6401 
       71300.00          0.3748          0.5962 
       71350.00          0.4569          0.6336 
       71400.00          0.4292          0.5815 
       71450.00          0.4111          0.6432 
       71500.00          0.3846          0.5739 
       71550.00          0.4149          0.6029 
       71600.00          0.3803          0.6099 
       71650.00          0.3368          0.5980 
       71700.00          0.3975          0.6261 
       71750.00          0.2843          0.5374 
       71800.00          0.3699          0.4776 
       71850.00          0.3423          0.5415 
       71900.00          0.3583          0.4821 
       71950.00          0.3850          0.5619 
       72000.00          0.3848          0.5673 
       72050.00          0.3657          0.5772 
       72100.00          0.3857          0.5452 
       72150.00          0.4154          0.5026 
       72200.00          0.3960          0.4595 
       72250.00          0.4093          0.4212 
       72300.00          0.3837          0.4559 
       72350.00          0.3938          0.3923 
       72400.00          0.3942          0.3716 
       72450.00          0.4020          0.4126 
       72500.00          0.4460          0.4937 
       72550.00          0.4516          0.5232 
       72600.00          0.4119          0.5097 
       72650.00          0.4445          0.5392 
       72700.00          0.4154          0.5436 
       72750.00          0.3683          0.4713 
       72800.00          0.4235          0.5074 
       72850.00          0.3756          0.4836 
       72900.00          0.3561          0.4003 
       72950.00          0.3421          0.4043 
       73000.00          0.3809          0.4586 
       73050.00          0.3622          0.5335 
       73100.00          0.3565          0.5004 
       73150.00          0.4037          0.4990 
       73200.00          0.4155          0.4400 
       73250.00          0.3675          0.4698 
       73300.00          0.3572          0.4992 
       73350.00          0.3752          0.5326 
       73400.00          0.3935          0.5077 
       73450.00          0.4252          0.5700 
       73500.00          0.4258          0.4783 
       73550.00          0.3911          0.4609 
       73600.00          0.3586          0.4679 
       73650.00          0.3879          0.4718 
       73700.00          0.4366          0.5149 
       73750.00          0.3928          0.4534 
       73800.00          0.4188          0.3809 
       73850.00          0.4309          0.4033 
       73900.00          0.3773          0.3757 
       73950.00          0.3535          0.3653 
       74000.00          0.3813          0.4523 
       74050.00          0.3586          0.4179 
       74100.00          0.3913          0.3290 
       74150.00          0.4013          0.3999 
       74200.00          0.4033          0.5291 
       74250.00          0.3724          0.5051 
       74300.00          0.4158          0.4260 
       74350.00          0.4050          0.4921 
       74400.00          0.3949          0.4488 
       74450.00          0.3841          0.4633 
       74500.00          0.4225          0.3582 
       74550.00          0.3881          0.4073 
       74600.00          0.3955          0.4393 
       74650.00          0.3912          0.5602 
       74700.00          0.4090          0.4263 
       74750.00          0.3950          0.4530 
       74800.00          0.4142          0.4092 
       74850.00          0.3876          0.4044 
       74900.00          0.3791          0.4571 
       74950.00          0.4013          0.5125 
       75000.00          0.3984          0.6094 
       75050.00          0.4510          0.6664 
       75100.00          0.3623          0.5545 
       75150.00          0.4007          0.6213 
       75200.00          0.3592          0.5729 
       75250.00          0.3337          0.5520 
       75300.00          0.4207          0.5973 
       75350.00          0.5157          0.7019 
       75400.00          0.4397          0.6472 
       75450.00          0.4200          0.6021 
       75500.00          0.3651          0.5712 
       75550.00          0.3694          0.5270 
       75600.00          0.4480          0.5912 
       75650.00          0.4548          0.5961 
       75700.00          0.4546          0.6376 
       75750.00          0.4525          0.6181 
       75800.00          0.4805          0.6382 
       75850.00          0.4697          0.6101 
       75900.00          0.4223          0.5790 
       75950.00          0.3923          0.5893 
       76000.00          0.3775          0.5900 
       76050.00          0.3393          0.5168 
       76100.00          0.4264          0.6157 
       76150.00          0.3558          0.5553 
       76200.00          0.4217          0.6205 
       76250.00          0.3771          0.4554 
       76300.00          0.3484          0.5065 
       76350.00          0.4074          0.5778 
       76400.00          0.3878          0.5188 
       76450.00          0.4113          0.4340 
       76500.00          0.3888          0.4119 
       76550.00          0.3890          0.4791 
       76600.00          0.3735          0.3736 
       76650.00          0.3967          0.4408 
       76700.00          0.3902          0.4786 
       76750.00          0.4189          0.4541 
       76800.00          0.4290          0.6022 
       76850.00          0.3762          0.5365 
       76900.00          0.3651          0.4545 
       76950.00          0.3532          0.4688 
       77000.00          0.3585          0.4777 
       77050.00          0.3790          0.4100 
       77100.00          0.4416          0.4160 
       77150.00          0.3916          0.4186 
       77200.00          0.4068          0.4449 
       77250.00          0.3920          0.4539 
       77300.00          0.3361          0.5014 
       77350.00          0.3880          0.5103 
       77400.00          0.3675          0.4573 
       77450.00          0.4029          0.5548 
       77500.00          0.4286          0.5933 
       77550.00          0.4161          0.6284 
       77600.00          0.4058          0.5462 
       77650.00          0.4113          0.5651 
       77700.00          0.4255          0.6025 
       77750.00          0.3856          0.4941 
       77800.00          0.4085          0.5609 
       77850.00          0.3887          0.5374 
       77900.00          0.3976          0.4084 
       77950.00          0.4074          0.5176 
       78000.00          0.3544          0.5070 
       78050.00          0.3802          0.5346 
       78100.00          0.4408          0.5753 
       78150.00          0.4264          0.6030 
       78200.00          0.4716          0.5919 
       78250.00          0.4061          0.5625 
       78300.00          0.4166          0.5161 
       78350.00          0.4301          0.5293 
       78400.00          0.3887          0.4757 
       78450.00          0.4125          0.4701 
       78500.00          0.4358          0.4548 
       78550.00          0.4696          0.6259 
       78600.00          0.4360          0.5689 
       78650.00          0.4278          0.5847 
       78700.00          0.4591          0.6131 
       78750.00          0.4817          0.6858 
       78800.00          0.4796          0.6317 
       78850.00          0.4531          0.6211 
       78900.00          0.4157          0.6195 
       78950.00          0.4612          0.6651 
       79000.00          0.4671          0.6592 
       79050.00          0.5011          0.6414 
       79100.00          0.4578          0.6382 
       79150.00          0.4942          0.7262 
       79200.00          0.4789          0.7137 
       79250.00          0.5053          0.6683 
       79300.00          0.4994          0.7193 
       79350.00          0.4429          0.6056 
       79400.00          0.4716          0.6420 
       79450.00          0.4489          0.6597 
       79500.00          0.4828          0.5753 
       79550.00          0.4189          0.5422 
       79600.00          0.4297          0.4925 
       79650.00          0.4202          0.4836 
       79700.00          0.4222          0.4814 
       79750.00          0.4363          0.4725 
       79800.00          0.4097          0.4286 
       79850.00          0.4121          0.3715 
       79900.00          0.4047          0.4478 
       79950.00          0.3571          0.4484 
       80000.00          0.3549          0.4589 
       80050.00          0.4087          0.4188 
       80100.00          0.3912          0.4446 
       80150.00          0.3179          0.5214 
       80200.00          0.2542          0.4752 
       80250.00          0.3026          0.5610 
       80300.00          0.3093          0.5265 
       80350.00          0.3138          0.5329 
       80400.00          0.3359          0.5296 
       80450.00          0.4040          0.5826 
       80500.00          0.4432          0.6278 
       80550.00          0.3403          0.5291 
       80600.00          0.3398          0.5360 
       80650.00          0.3443          0.5111 
       80700.00          0.3593          0.4828 
       80750.00          0.3608          0.5040 
       80800.00          0.3528          0.4810 
       80850.00          0.3395          0.5380 
       80900.00          0.3365          0.5445 
       80950.00          0.3692          0.6309 
       81000.00          0.4176          0.6414 
       81050.00          0.3695          0.6247 
       81100.00          0.3744          0.5621 
       81150.00          0.4467          0.6018 
       81200.00          0.3872          0.5066 
       81250.00          0.4018          0.5251 
       81300.00          0.3758          0.5650 
       81350.00          0.3876          0.5202 
       81400.00          0.3915          0.4540 
       81450.00          0.3276          0.4320 
       81500.00          0.3746          0.4468 
       81550.00          0.4052          0.4326 
       81600.00          0.4391          0.5372 
       81650.00          0.4073          0.5279 
       81700.00          0.3542          0.5007 
       81750.00          0.4390          0.5407 
       81800.00          0.4165          0.5021 
       81850.00          0.4362          0.5152 
       81900.00          0.4095          0.5224 
       81950.00          0.3518          0.5329 
       82000.00          0.3266          0.5202 
       82050.00          0.3169          0.5333 
       82100.00          0.2775          0.5115 
       82150.00          0.3441          0.5890 
       82200.00          0.3104          0.5423 
       82250.00          0.2660          0.5502 
       82300.00          0.3316          0.4576 
       82350.00          0.3612          0.5669 
       82400.00          0.4014          0.5942 
       82450.00          0.4185          0.5975 
       82500.00          0.4145          0.5484 
       82550.00          0.4102          0.5610 
       82600.00          0.4017          0.5318 
       82650.00          0.4007          0.4849 
       82700.00          0.4166          0.5593 
       82750.00          0.4236          0.5351 
       82800.00          0.3767          0.4960 
       82850.00          0.3431          0.4820 
       82900.00          0.3352          0.4614 
       82950.00          0.3611          0.3635 
       83000.00          0.3555          0.4704 
       83050.00          0.3061          0.5172 
       83100.00          0.3370          0.5052 
       83150.00          0.3312          0.5096 
       83200.00          0.3086          0.4749 
       83250.00          0.2891          0.4818 
       83300.00          0.2513          0.4944 
       83350.00          0.3203          0.5654 
       83400.00          0.2577          0.5204 
       83450.00          0.2904          0.5346 
       83500.00          0.2648          0.4885 
       83550.00          0.3128          0.5424 
       83600.00          0.3021          0.5506 
       83650.00          0.3442          0.5691 
       83700.00          0.4182          0.6844 
       83750.00          0.4028          0.6657 
       83800.00          0.4133          0.6392 
       83850.00          0.3897          0.5716 
       83900.00          0.4339          0.5859 
       83950.00          0.3983          0.5338 
       84000.00          0.3918          0.4281 
       84050.00          0.4059          0.4165 
       84100.00          0.4342          0.5051 
       84150.00          0.4300          0.4806 
       84200.00          0.3943          0.5121 
       84250.00          0.4016          0.4731 
       84300.00          0.3878          0.5202 
       84350.00          0.4042          0.4998 
       84400.00          0.3657          0.4698 
       84450.00          0.3487          0.5405 
       84500.00          0.4215          0.5318 
       84550.00          0.4352          0.5972 
       84600.00          0.4396          0.6227 
       84650.00          0.4467          0.6226 
       84700.00          0.4753          0.6281 
       84750.00          0.4903          0.6758 
       84800.00          0.4831          0.7130 
       84850.00          0.4132          0.6368 
       84900.00          0.4749          0.6867 
       84950.00          0.4869          0.6788 
       85000.00          0.4432          0.6311 
       85050.00          0.4686          0.6395 
       85100.00          0.4570          0.6071 
       85150.00          0.4701          0.6459 
       85200.00          0.5049          0.7366 
       85250.00          0.4610          0.6047 
       85300.00          0.4671          0.6423 
       85350.00          0.4994          0.7125 
       85400.00          0.4740          0.6831 
       85450.00          0.4885          0.6978 
       85500.00          0.4539          0.6409 
       85550.00          0.4763          0.5934 
       85600.00          0.4363          0.5105 
       85650.00          0.5097          0.6806 
       85700.00          0.4908          0.6025 
       85750.00          0.4896          0.5955 
       85800.00          0.4548          0.5403 
       85850.00          0.4042          0.5745 
       85900.00          0.4380          0.4758 
       85950.00          0.3992          0.3663 
       86000.00          0.4220          0.3946 
       86050.00          0.4489          0.4094 
       86100.00          0.4232          0.4143 
       86150.00          0.3928          0.4293 
       86200.00          0.4325          0.4320 
       86250.00          0.4017          0.3940 
       86300.00          0.4745          0.3032 
       86350.00          0.4281          0.2624 
       86400.00          0.3922          0.3461 
       86450.00          0.4174          0.3634 
       86500.00          0.4622          0.3110 
       86550.00          0.4652          0.3611 
       86600.00          0.4585          0.3302 
       86650.00          0.4396          0.3632 
       86700.00          0.4512          0.3469 
       86750.00          0.4830          0.3481 
       86800.00          0.4823          0.3500 
       86850.00          0.4583          0.3970 
       86900.00          0.4788          0.3449 
       86950.00          0.4844          0.3537 
       87000.00          0.4859          0.3986 
       87050.00          0.4127          0.4365 
       87100.00          0.4311          0.3914 
       87150.00          0.4153          0.3916 
       87200.00          0.4163          0.4070 
       87250.00          0.4348          0.4649 
       87300.00          0.3671          0.4854 
       87350.00          0.3726          0.4528 
       87400.00          0.3902          0.4455 
       87450.00          0.3829          0.4233 
       87500.00          0.3972          0.3927 
       87550.00          0.4195          0.3507 
       87600.00          0.4545          0.3041 
       87650.00          0.4204          0.3301 
       87700.00          0.4400          0.2898 
       87750.00          0.4724          0.3901 
       87800.00          0.4602          0.3654 
       87850.00          0.4667          0.3342 
       87900.00          0.4672          0.3139 
       87950.00          0.4618          0.3947 
       88000.00          0.4984          0.3591 
       88050.00          0.4476          0.3286 
       88100.00          0.4373          0.4243 
       88150.00          0.4530          0.3709 
       88200.00          0.4420          0.3949 
       88250.00          0.4463          0.2968 
       88300.00          0.3909          0.4161 
       88350.00          0.4402          0.3526 
       88400.00          0.3467          0.4300 
       88450.00          0.3642          0.4144 
       88500.00          0.4168          0.3592 
       88550.00          0.3746          0.4112 
       88600.00          0.4272          0.5140 
       88650.00          0.4401          0.5007 
       88700.00          0.4433          0.4896 
       88750.00          0.4734          0.5723 
       88800.00          0.4366          0.5926 
       88850.00          0.4819          0.6317 
       88900.00          0.4299          0.5846 
       88950.00          0.4260          0.5582 
       89000.00          0.3515          0.4378 
       89050.00          0.3813          0.4274 
       89100.00          0.3628          0.5353 
       89150.00          0.3698          0.3921 
       89200.00          0.3747          0.3774 
       89250.00          0.3220          0.4562 
       89300.00          0.3427          0.4828 
       89350.00          0.3584          0.5845 
       89400.00          0.3890          0.5892 
       89450.00          0.3490          0.5080 
       89500.00          0.3289          0.4261 
       89550.00          0.3525          0.3864 
       89600.00          0.4098          0.3230 
       89650.00          0.3966          0.4108 
       89700.00          0.3847          0.4524 
       89750.00          0.4126          0.3799 
       89800.00          0.4367          0.4262 
       89850.00          0.4018          0.3616 
       89900.00          0.3949          0.4411 
       89950.00          0.3506          0.5236 
       90000.00          0.3993          0.5872 
       90050.00          0.4085          0.6388 
       90100.00          0.3677          0.6186 
       90150.00          0.3737          0.6402 
       90200.00          0.4281          0.6441 
       90250.00          0.4187          0.5791 
       90300.00          0.3685          0.5033 
       90350.00          0.4138          0.6125 
       90400.00          0.4011          0.6146 
       90450.00          0.4291          0.6221 
       90500.00          0.4600          0.6263 
       90550.00          0.4586          0.6480 
       90600.00          0.5003          0.7157 
       90650.00          0.4944          0.7112 
       90700.00          0.4799          0.6854 
       90750.00          0.4755          0.6571 
       90800.00          0.4518          0.6119 
       90850.00          0.4141          0.5704 
       90900.00          0.4223          0.5565 
       90950.00          0.3676          0.4550 
       91000.00          0.4253          0.5811 
       91050.00          0.3880          0.5872 
       91100.00          0.3778          0.5424 
       91150.00          0.3753          0.5793 
       91200.00          0.4233          0.5941 
       91250.00          0.3822          0.5827 
       91300.00          0.4499          0.6720 
       91350.00          0.3998          0.6319 
       91400.00          0.4322          0.6558 
       91450.00          0.4605          0.6647 
       91500.00          0.3854          0.6173 
       91550.00          0.4217          0.5940 
       91600.00          0.4073          0.6336 
       91650.00          0.4113          0.6174 
       91700.00          0.4511          0.6145 
       91750.00          0.4401          0.5826 
       91800.00          0.4076          0.6142 
       91850.00          0.3814          0.5876 
       91900.00          0.4080          0.5812 
       91950.00          0.3845          0.5784 
       92000.00          0.4282          0.5633 
       92050.00          0.4393          0.5104 
       92100.00          0.4418          0.5256 
       92150.00          0.4172          0.4400 
       92200.00          0.3929          0.4182 
       92250.00          0.4164          0.4022 
       92300.00          0.4198          0.4299 
       92350.00          0.4277          0.4231 
       92400.00          0.4245          0.5875 
       92450.00          0.4039          0.6254 
       92500.00          0.3914          0.5467 
       92550.00          0.3800          0.5981 
       92600.00          0.4135          0.6464 
       92650.00          0.3854          0.5960 
       92700.00          0.4172          0.5746 
       92750.00          0.4228          0.6292 
       92800.00          0.3922          0.5586 
       92850.00          0.3771          0.5952 
       92900.00          0.3402          0.5625 
       92950.00          0.3801          0.5983 
       93000.00          0.3934          0.5941 
       93050.00          0.3990          0.6460 
       93100.00          0.4178          0.6227 
       93150.00          0.4037          0.6194 
       93200.00          0.3997          0.5330 
       93250.00          0.4140          0.6310 
       93300.00          0.3923          0.5973 
       93350.00          0.4194          0.5878 
       93400.00          0.4416          0.5901 
       93450.00          0.4160          0.6284 
       93500.00          0.3994          0.6237 
       93550.00          0.4375          0.6198 
       93600.00          0.4296          0.6449 
       93650.00          0.3875          0.5793 
       93700.00          0.4335          0.5645 
       93750.00          0.4517          0.4535 
       93800.00          0.4082          0.3994 
       93850.00          0.4170          0.3074 
       93900.00          0.3754          0.3394 
       93950.00          0.3510          0.3061 
       94000.00          0.3710          0.3559 
       94050.00          0.4213          0.4941 
       94100.00          0.4268          0.5238 
       94150.00          0.4323          0.5089 
       94200.00          0.4243          0.5130 
       94250.00          0.4123          0.4804 
       94300.00          0.4132          0.5545 
       94350.00          0.4329          0.5178 
       94400.00          0.4147          0.5261 
       94450.00          0.4235          0.5254 
       94500.00          0.4356          0.4751 
       94550.00          0.4214          0.4189 
       94600.00          0.4019          0.4358 
       94650.00          0.4304          0.4367 
       94700.00          0.4265          0.4983 
       94750.00          0.4469          0.6112 
       94800.00          0.4456          0.6417 
       94850.00          0.4129          0.5914 
       94900.00          0.4046          0.5759 
       94950.00          0.4222          0.6238 
       95000.00          0.4176          0.6253 
       95050.00          0.3290          0.5704 
       95100.00          0.3817          0.6503 
       95150.00          0.4290          0.6513 
       95200.00          0.4858          0.6795 
       95250.00          0.4657          0.6752 
       95300.00          0.5079          0.6920 
       95350.00          0.4719          0.6787 
       95400.00          0.4355          0.6222 
       95450.00          0.4520          0.5730 
       95500.00          0.4594          0.6043 
       95550.00          0.4178          0.5444 
       95600.00          0.4555          0.5467 
       95650.00          0.4676          0.5580 
       95700.00          0.4846          0.5581 
       95750.00          0.4735          0.5704 
       95800.00          0.4561          0.6091 
       95850.00          0.3855          0.5510 
       95900.00          0.3817          0.5804 
       95950.00          0.3820          0.5523 
       96000.00          0.4181          0.6384 
       96050.00          0.4596          0.5666 
       96100.00          0.4467          0.5916 
       96150.00          0.4808          0.5694 
       96200.00          0.4565          0.5968 
       96250.00          0.4053          0.5665 
       96300.00          0.4720          0.6600 
       96350.00          0.4034          0.5866 
       96400.00          0.3909          0.5903 
       96450.00          0.4163          0.6077 
       96500.00          0.3920          0.4836 
       96550.00          0.3822          0.4727 
       96600.00          0.3943          0.4315 
       96650.00          0.3373          0.3656 
       96700.00          0.2977          0.3451 
       96750.00          0.3426          0.3404 
       96800.00          0.2893          0.3780 
       96850.00          0.3179          0.2970 
       96900.00          0.3299          0.3420 
       96950.00          0.3206          0.3456 
       97000.00          0.3011          0.3629 
       97050.00          0.2945          0.3432 
       97100.00          0.3235          0.3473 
       97150.00          0.3016          0.3500 
       97200.00          0.2807          0.3356 
       97250.00          0.3188          0.3758 
       97300.00          0.3125          0.4420 
       97350.00          0.3370          0.4925 
       97400.00          0.3506          0.4058 
       97450.00          0.3305          0.4151 
       97500.00          0.3300          0.3920 
       97550.00          0.3526          0.4000 
       97600.00          0.3208          0.3799 
       97650.00          0.3412          0.3871 
       97700.00          0.3629          0.4076 
       97750.00          0.3603          0.3450 
       97800.00          0.3494          0.3721 
       97850.00          0.3761          0.4087 
       97900.00          0.3683          0.4088 
       97950.00          0.4141          0.3511 
       98000.00          0.3703          0.3963 
       98050.00          0.4049          0.3217 
       98100.00          0.4137          0.3826 
       98150.00          0.4354          0.4388 
       98200.00          0.4580          0.5720 
       98250.00          0.4738          0.6411 
       98300.00          0.4497          0.6647 
       98350.00          0.4690          0.6947 
       98400.00          0.5131          0.7319 
       98450.00          0.4834          0.6872 
       98500.00          0.4849          0.6938 
       98550.00          0.4579          0.6522 
       98600.00          0.3803          0.5930 
       98650.00          0.4453          0.6699 
       98700.00          0.4953          0.7240 
       98750.00          0.4276          0.6585 
       98800.00          0.4105          0.6194 
       98850.00          0.3276          0.5490 
       98900.00          0.4158          0.5601 
       98950.00          0.4666          0.6621 
       99000.00          0.4232          0.5543 
       99050.00          0.4387          0.6324 
       99100.00          0.3837          0.5535 
       99150.00          0.3823          0.4719 
       99200.00          0.4077          0.4554 
       99250.00          0.3175          0.5037 
       99300.00          0.3611          0.4661 
       99350.00          0.3596          0.4601 
       99400.00          0.3453          0.4476 
       99450.00          0.3453          0.4285 
       99500.00          0.3659          0.3856 
       99550.00          0.3987          0.3253 
       99600.00          0.4185          0.2916 
       99650.00          0.4497          0.3106 
       99700.00          0.4456          0.3460 
       99750.00          0.4297          0.3144 
       99800.00          0.4404          0.3712 
       99850.00          0.4192          0.4102 
       99900.00          0.4496          0.3989 
       99950.00          0.4101          0.4374 
      100000.00          0.4566          0.4580 
