@    xaxis  label "t"
@    yaxis  label "RMSD (nm)"
           0.00          0.0002          0.4517 
          50.00          0.1751          0.4297 
         100.00          0.2187          0.4014 
         150.00          0.2824          0.3380 
         200.00          0.2864          0.3855 
         250.00          0.2195          0.4487 
         300.00          0.2587          0.4417 
         350.00          0.2956          0.4503 
         400.00          0.3106          0.4021 
         450.00          0.3308          0.3692 
         500.00          0.3005          0.4179 
         550.00          0.2572          0.4142 
         600.00          0.1920          0.4541 
         650.00          0.1242          0.4684 
         700.00          0.1824          0.4367 
         750.00          0.2080          0.4347 
         800.00          0.1120          0.4346 
         850.00          0.1793          0.4475 
         900.00          0.1873          0.4388 
         950.00          0.2073          0.4240 
        1000.00          0.1714          0.4382 
        1050.00          0.1654          0.4625 
        1100.00          0.1929          0.4153 
        1150.00          0.2052          0.4129 
        1200.00          0.1747          0.4304 
        1250.00          0.1976          0.4193 
        1300.00          0.1582          0.4313 
        1350.00          0.1774          0.4294 
        1400.00          0.1930          0.4246 
        1450.00          0.1746          0.4332 
        1500.00          0.2332          0.3865 
        1550.00          0.2529          0.3899 
        1600.00          0.2247          0.4062 
        1650.00          0.1725          0.4247 
        1700.00          0.1836          0.4289 
        1750.00          0.1959          0.4211 
        1800.00          0.1396          0.4540 
        1850.00          0.1353          0.4564 
        1900.00          0.1919          0.4162 
        1950.00          0.1581          0.4478 
        2000.00          0.1913          0.4187 
        2050.00          0.1843          0.4354 
        2100.00          0.1794          0.4280 
        2150.00          0.2262          0.4077 
        2200.00          0.2425          0.3889 
        2250.00          0.2278          0.3963 
        2300.00          0.2192          0.3898 
        2350.00          0.1998          0.4168 
        2400.00          0.1797          0.4191 
        2450.00          0.1857          0.4230 
        2500.00          0.2019          0.4177 
        2550.00          0.1825          0.4308 
        2600.00          0.2118          0.4042 
        2650.00          0.1946          0.4176 
        2700.00          0.1821          0.4329 
        2750.00          0.1603          0.4367 
        2800.00          0.2078          0.4281 
        2850.00          0.1910          0.4215 
        2900.00          0.1543          0.4443 
        2950.00          0.1747          0.4341 
        3000.00          0.2205          0.4112 
        3050.00          0.1641          0.4304 
        3100.00          0.1608          0.4454 
        3150.00          0.0856          0.4689 
        3200.00          0.0769          0.4453 
        3250.00          0.0608          0.4709 
        3300.00          0.1738          0.4416 
        3350.00          0.1958          0.4197 
        3400.00          0.2253          0.4084 
        3450.00          0.2450          0.4030 
        3500.00          0.2129          0.4057 
        3550.00          0.1955          0.4181 
        3600.00          0.2032          0.4215 
        3650.00          0.2289          0.4050 
        3700.00          0.2038          0.4214 
        3750.00          0.1643          0.4290 
        3800.00          0.2285          0.4038 
        3850.00          0.2019          0.4202 
        3900.00          0.1461          0.4601 
        3950.00          0.1716          0.4382 
        4000.00          0.1908          0.4212 
        4050.00          0.1696          0.4288 
        4100.00          0.1654          0.4404 
        4150.00          0.1908          0.4177 
        4200.00          0.1806          0.4294 
        4250.00          0.1805          0.4214 
        4300.00          0.1793          0.4198 
        4350.00          0.2058          0.4255 
        4400.00          0.1690          0.4320 
        4450.00          0.1870          0.4244 
        4500.00          0.1958          0.4285 
        4550.00          0.1819          0.4343 
        4600.00          0.2549          0.3815 
        4650.00          0.2368          0.3867 
        4700.00          0.2112          0.4068 
        4750.00          0.1523          0.4348 
        4800.00          0.1751          0.4305 
        4850.00          0.1924          0.4189 
        4900.00          0.2024          0.4171 
        4950.00          0.1977          0.4171 
        5000.00          0.1989          0.4228 
        5050.00          0.1973          0.4269 
        5100.00          0.2202          0.4134 
        5150.00          0.2150          0.4185 
        5200.00          0.2128          0.4121 
        5250.00          0.1950          0.4193 
        5300.00          0.2309          0.4150 
        5350.00          0.1927          0.4242 
        5400.00          0.2379          0.3906 
        5450.00          0.1870          0.4288 
        5500.00          0.1568          0.4344 
        5550.00          0.1886          0.4253 
        5600.00          0.1190          0.4621 
        5650.00          0.1473          0.4380 
        5700.00          0.1766          0.4270 
        5750.00          0.1771          0.4220 
        5800.00          0.1968          0.4151 
        5850.00          0.2002          0.4183 
        5900.00          0.2019          0.4145 
        5950.00          0.1597          0.4434 
        6000.00          0.2149          0.4131 
        6050.00          0.1616          0.4319 
        6100.00          0.1718          0.4326 
        6150.00          0.1911          0.4238 
        6200.00          0.1691          0.4273 
        6250.00          0.1783          0.4233 
        6300.00          0.1852          0.4149 
        6350.00          0.2152          0.4045 
        6400.00          0.1948          0.4182 
        6450.00          0.2037          0.4150 
        6500.00          0.1840          0.4287 
        6550.00          0.2132          0.4076 
        6600.00          0.2017          0.4174 
        6650.00          0.2149          0.4202 
        6700.00          0.2011          0.4177 
        6750.00          0.2124          0.4199 
        6800.00          0.1813          0.4303 
        6850.00          0.2025          0.4244 
        6900.00          0.1802          0.4296 
        6950.00          0.2135          0.4034 
        7000.00          0.1913          0.4231 
        7050.00          0.1960          0.4174 
        7100.00          0.1570          0.4359 
        7150.00          0.1449          0.4555 
        7200.00          0.1543          0.4374 
        7250.00          0.1185          0.4632 
        7300.00          0.0786          0.4460 
        7350.00          0.0795          0.4273 
        7400.00          0.0899          0.4538 
        7450.00          0.0684          0.4378 
        7500.00          0.0660          0.4480 
        7550.00          0.0681          0.4411 
        7600.00          0.0675          0.4414 
        7650.00          0.0484          0.4477 
        7700.00          0.0760          0.4435 
        7750.00          0.0874          0.4267 
        7800.00          0.0757          0.4485 
        7850.00          0.0986          0.4446 
        7900.00          0.0881          0.4257 
        7950.00          0.0680          0.4444 
        8000.00          0.0749          0.4357 
        8050.00          0.0602          0.4410 
        8100.00          0.0562          0.4505 
        8150.00          0.0628          0.4453 
        8200.00          0.0585          0.4442 
        8250.00          0.0524          0.4561 
        8300.00          0.0810          0.4514 
        8350.00          0.0807          0.4542 
        8400.00          0.0947          0.4447 
        8450.00          0.1323          0.4355 
        8500.00          0.1377          0.4266 
        8550.00          0.1213          0.4430 
        8600.00          0.1377          0.4168 
        8650.00          0.1066          0.4342 
        8700.00          0.0631          0.4377 
        8750.00          0.0476          0.4633 
        8800.00          0.0397          0.4563 
        8850.00          0.0720          0.4343 
        8900.00          0.1023          0.4397 
        8950.00          0.1209          0.4317 
        9000.00          0.0860          0.4528 
        9050.00          0.0390          0.4414 
        9100.00          0.0482          0.4435 
        9150.00          0.0509          0.4479 
        9200.00          0.0604          0.4357 
        9250.00          0.0844          0.4441 
        9300.00          0.0806          0.4394 
        9350.00          0.0501          0.4435 
        9400.00          0.0484          0.4476 
        9450.00          0.0582          0.4494 
        9500.00          0.0627          0.4453 
        9550.00          0.1211          0.4226 
        9600.00          0.0594          0.4480 
        9650.00          0.0642          0.4361 
        9700.00          0.0781          0.4455 
        9750.00          0.0649          0.4445 
        9800.00          0.0986          0.4429 
        9850.00          0.0726          0.4315 
        9900.00          0.0696          0.4370 
        9950.00          0.0373          0.4537 
       10000.00          0.0507          0.4542 
       10050.00          0.0458          0.4493 
       10100.00          0.0734          0.4559 
       10150.00          0.0475          0.4588 
       10200.00          0.0911          0.4391 
       10250.00          0.0467          0.4420 
       10300.00          0.0527          0.4542 
       10350.00          0.0407          0.4572 
       10400.00          0.0538          0.4606 
       10450.00          0.0473          0.4407 
       10500.00          0.0672          0.4489 
       10550.00          0.0505          0.4429 
       10600.00          0.1074          0.4355 
       10650.00          0.1215          0.4313 
       10700.00          0.0771          0.4406 
       10750.00          0.0633          0.4475 
       10800.00          0.0982          0.4466 
       10850.00          0.0709          0.4504 
       10900.00          0.0678          0.4372 
       10950.00          0.0506          0.4434 
       11000.00          0.0866          0.4411 
       11050.00          0.0674          0.4574 
       11100.00          0.0822          0.4536 
       11150.00          0.0575          0.4510 
       11200.00          0.0739          0.4518 
       11250.00          0.1160          0.4329 
       11300.00          0.0635          0.4402 
       11350.00          0.0686          0.4471 
       11400.00          0.0811          0.4448 
       11450.00          0.0961          0.4409 
       11500.00          0.0787          0.4413 
       11550.00          0.0348          0.4505 
       11600.00          0.0445          0.4528 
       11650.00          0.0585          0.4451 
       11700.00          0.0536          0.4510 
       11750.00          0.0608          0.4560 
       11800.00          0.0403          0.4502 
       11850.00          0.0558          0.4410 
       11900.00          0.0415          0.4539 
       11950.00          0.1089          0.4251 
       12000.00          0.1085          0.4397 
       12050.00          0.1394          0.4364 
       12100.00          0.0922          0.4442 
       12150.00          0.0915          0.4248 
       12200.00          0.1273          0.4262 
       12250.00          0.0841          0.4451 
       12300.00          0.0704          0.4404 
       12350.00          0.1035          0.4369 
       12400.00          0.0809          0.4338 
       12450.00          0.1006          0.4449 
       12500.00          0.0789          0.4494 
       12550.00          0.0988          0.4373 
       12600.00          0.1162          0.4184 
       12650.00          0.0658          0.4352 
       12700.00          0.0710          0.4378 
       12750.00          0.0549          0.4442 
       12800.00          0.0567          0.4365 
       12850.00          0.0487          0.4447 
       12900.00          0.0658          0.4405 
       12950.00          0.0505          0.4583 
       13000.00          0.0671          0.4377 
       13050.00          0.0700          0.4514 
       13100.00          0.0691          0.4431 
       13150.00          0.0831          0.4503 
       13200.00          0.0837          0.4350 
       13250.00          0.0729          0.4400 
       13300.00          0.0295          0.4502 
       13350.00          0.0577          0.4467 
       13400.00          0.0729          0.4357 
       13450.00          0.0640          0.4513 
       13500.00          0.0565          0.4471 
       13550.00          0.1233          0.4243 
       13600.00          0.1010          0.4334 
       13650.00          0.0838          0.4404 
       13700.00          0.0759          0.4427 
       13750.00          0.0467          0.4426 
       13800.00          0.0673          0.4410 
       13850.00          0.0337          0.4397 
       13900.00          0.0392          0.4382 
       13950.00          0.0714          0.4544 
       14000.00          0.1107          0.4419 
       14050.00          0.0844          0.4437 
       14100.00          0.0452          0.4444 
       14150.00          0.1102          0.4326 
       14200.00          0.1611          0.4076 
       14250.00          0.1396          0.4176 
       14300.00          0.0726          0.4383 
       14350.00          0.0545          0.4455 
       14400.00          0.0572          0.4367 
       14450.00          0.0531          0.4511 
       14500.00          0.0738          0.4475 
       14550.00          0.0514          0.4345 
       14600.00          0.0460          0.4521 
       14650.00          0.0480          0.4453 
       14700.00          0.0557          0.4703 
       14750.00          0.0801          0.4481 
       14800.00          0.0511          0.4482 
       14850.00          0.0382          0.4533 
       14900.00          0.0689          0.4491 
       14950.00          0.0818          0.4385 
       15000.00          0.0694          0.4414 
       15050.00          0.0729          0.4479 
       15100.00          0.0899          0.4315 
       15150.00          0.0598          0.4396 
       15200.00          0.0499          0.4467 
       15250.00          0.1139          0.4309 
       15300.00          0.0996          0.4372 
       15350.00          0.0694          0.4443 
       15400.00          0.0491          0.4582 
       15450.00          0.0677          0.4441 
       15500.00          0.1265          0.4104 
       15550.00          0.1246          0.4289 
       15600.00          0.0454          0.4492 
       15650.00          0.0656          0.4507 
       15700.00          0.0727          0.4431 
       15750.00          0.0606          0.4429 
       15800.00          0.0589          0.4539 
       15850.00          0.0499          0.4432 
       15900.00          0.0581          0.4473 
       15950.00          0.0483          0.4456 
       16000.00          0.0766          0.4316 
       16050.00          0.0597          0.4442 
       16100.00          0.0581          0.4384 
       16150.00          0.0677          0.4385 
       16200.00          0.0460          0.4419 
       16250.00          0.0746          0.4346 
       16300.00          0.0626          0.4340 
       16350.00          0.0581          0.4415 
       16400.00          0.0517          0.4463 
       16450.00          0.0859          0.4485 
       16500.00          0.0914          0.4403 
       16550.00          0.0674          0.4311 
       16600.00          0.0633          0.4443 
       16650.00          0.0888          0.4433 
       16700.00          0.0674          0.4488 
       16750.00          0.0695          0.4477 
       16800.00          0.0993          0.4301 
       16850.00          0.0792          0.4433 
       16900.00          0.0627          0.4431 
       16950.00          0.1064          0.4368 
       17000.00          0.0405          0.4401 
       17050.00          0.0686          0.4413 
       17100.00          0.0519          0.4487 
       17150.00          0.0867          0.4391 
       17200.00          0.0607          0.4390 
       17250.00          0.0764          0.4466 
       17300.00          0.1314          0.4227 
       17350.00          0.1199          0.4346 
       17400.00          0.1274          0.4178 
       17450.00          0.0478          0.4489 
       17500.00          0.0849          0.4398 
       17550.00          0.0542          0.4403 
       17600.00          0.0894          0.4425 
       17650.00          0.0840          0.4521 
       17700.00          0.0946          0.4365 
       17750.00          0.0809          0.4545 
       17800.00          0.1238          0.4653 
       17850.00          0.0791          0.4451 
       17900.00          0.1311          0.4236 
       17950.00          0.1052          0.4340 
       18000.00          0.0753          0.4361 
       18050.00          0.0650          0.4458 
       18100.00          0.1221          0.4268 
       18150.00          0.0590          0.4381 
       18200.00          0.0931          0.4433 
       18250.00          0.0950          0.4602 
       18300.00          0.0997          0.4354 
       18350.00          0.0525          0.4544 
       18400.00          0.0706          0.4352 
       18450.00          0.0850          0.4443 
       18500.00          0.1037          0.4336 
       18550.00          0.0789          0.4426 
       18600.00          0.0275          0.4527 
       18650.00          0.0405          0.4442 
       18700.00          0.0795          0.4421 
       18750.00          0.0375          0.4375 
       18800.00          0.0650          0.4436 
       18850.00          0.0685          0.4403 
       18900.00          0.0785          0.4376 
       18950.00          0.0578          0.4447 
       19000.00          0.0541          0.4454 
       19050.00          0.0655          0.4364 
       19100.00          0.0355          0.4444 
       19150.00          0.0898          0.4377 
       19200.00          0.0820          0.4299 
       19250.00          0.0547          0.4448 
       19300.00          0.0431          0.4552 
       19350.00          0.0599          0.4520 
       19400.00          0.0665          0.4469 
       19450.00          0.0623          0.4437 
       19500.00          0.0662          0.4382 
       19550.00          0.0523          0.4357 
       19600.00          0.0977          0.4373 
       19650.00          0.0850          0.4340 
       19700.00          0.0612          0.4414 
       19750.00          0.0707          0.4331 
       19800.00          0.0594          0.4404 
       19850.00          0.0660          0.4407 
       19900.00          0.0660          0.4497 
       19950.00          0.0503          0.4466 
       20000.00          0.0187          0.4541 
       20050.00          0.1259          0.4314 
       20100.00          0.1177          0.4160 
       20150.00          0.1196          0.4225 
       20200.00          0.1343          0.4300 
       20250.00          0.0991          0.4465 
       20300.00          0.0635          0.4548 
       20350.00          0.0286          0.4471 
       20400.00          0.0785          0.4417 
       20450.00          0.0738          0.4403 
       20500.00          0.0558          0.4403 
       20550.00          0.0855          0.4394 
       20600.00          0.0744          0.4491 
       20650.00          0.0691          0.4351 
       20700.00          0.0716          0.4349 
       20750.00          0.0984          0.4492 
       20800.00          0.0580          0.4499 
       20850.00          0.0447          0.4448 
       20900.00          0.0648          0.4415 
       20950.00          0.0749          0.4347 
       21000.00          0.1037          0.4389 
       21050.00          0.0770          0.4452 
       21100.00          0.0856          0.4378 
       21150.00          0.0955          0.4348 
       21200.00          0.0728          0.4309 
       21250.00          0.0699          0.4413 
       21300.00          0.1150          0.4314 
       21350.00          0.0482          0.4601 
       21400.00          0.0931          0.4296 
       21450.00          0.0612          0.4453 
       21500.00          0.1181          0.4330 
       21550.00          0.0892          0.4355 
       21600.00          0.0624          0.4515 
       21650.00          0.0614          0.4331 
       21700.00          0.0772          0.4429 
       21750.00          0.0955          0.4413 
       21800.00          0.0237          0.4582 
       21850.00          0.0658          0.4512 
       21900.00          0.0735          0.4480 
       21950.00          0.0739          0.4397 
       22000.00          0.0388          0.4515 
       22050.00          0.0640          0.4438 
       22100.00          0.0508          0.4343 
       22150.00          0.0799          0.4515 
       22200.00          0.0560          0.4440 
       22250.00          0.0797          0.4402 
       22300.00          0.0903          0.4614 
       22350.00          0.0638          0.4565 
       22400.00          0.0611          0.4357 
       22450.00          0.0937          0.4585 
       22500.00          0.1555          0.4494 
       22550.00          0.1068          0.4560 
       22600.00          0.1586          0.4338 
       22650.00          0.1279          0.4469 
       22700.00          0.1997          0.4085 
       22750.00          0.1601          0.4260 
       22800.00          0.1270          0.4510 
       22850.00          0.1691          0.4161 
       22900.00          0.1753          0.4328 
       22950.00          0.2015          0.4154 
       23000.00          0.1973          0.4311 
       23050.00          0.2230          0.4146 
       23100.00          0.2157          0.4289 
       23150.00          0.2615          0.4029 
       23200.00          0.2235          0.4047 
       23250.00          0.2167          0.4302 
       23300.00          0.1630          0.4575 
       23350.00          0.2187          0.4079 
       23400.00          0.1955          0.4472 
       23450.00          0.1791          0.4485 
       23500.00          0.2239          0.4341 
       23550.00          0.2129          0.4255 
       23600.00          0.2387          0.3955 
       23650.00          0.2471          0.3842 
       23700.00          0.2503          0.3892 
       23750.00          0.2144          0.4032 
       23800.00          0.1585          0.4380 
       23850.00          0.2048          0.4134 
       23900.00          0.2306          0.3993 
       23950.00          0.2409          0.3810 
       24000.00          0.1869          0.4161 
       24050.00          0.2037          0.4147 
       24100.00          0.1951          0.4292 
       24150.00          0.2083          0.4163 
       24200.00          0.1837          0.4314 
       24250.00          0.1985          0.4193 
       24300.00          0.1989          0.4201 
       24350.00          0.1822          0.4261 
       24400.00          0.1971          0.4231 
       24450.00          0.2175          0.4072 
       24500.00          0.1964          0.4141 
       24550.00          0.1879          0.4195 
       24600.00          0.2074          0.4111 
       24650.00          0.1486          0.4433 
       24700.00          0.1893          0.4175 
       24750.00          0.1449          0.4481 
       24800.00          0.1902          0.4254 
       24850.00          0.1848          0.4265 
       24900.00          0.1891          0.4184 
       24950.00          0.1890          0.4178 
       25000.00          0.1841          0.4269 
       25050.00          0.1802          0.4264 
       25100.00          0.1959          0.4215 
       25150.00          0.1987          0.4118 
       25200.00          0.1873          0.4234 
       25250.00          0.1463          0.4217 
       25300.00          0.2064          0.4185 
       25350.00          0.1944          0.4284 
       25400.00          0.2214          0.4145 
       25450.00          0.1999          0.4216 
       25500.00          0.2091          0.4139 
       25550.00          0.2032          0.4154 
       25600.00          0.1816          0.4164 
       25650.00          0.2479          0.3946 
       25700.00          0.1860          0.4303 
       25750.00          0.1852          0.4154 
       25800.00          0.1877          0.4226 
       25850.00          0.1996          0.4057 
       25900.00          0.2032          0.4151 
       25950.00          0.2011          0.4244 
       26000.00          0.2205          0.4117 
       26050.00          0.1468          0.4442 
       26100.00          0.2133          0.4036 
       26150.00          0.1638          0.4338 
       26200.00          0.1735          0.4366 
       26250.00          0.1914          0.4306 
       26300.00          0.2115          0.4083 
       26350.00          0.1795          0.4358 
       26400.00          0.1929          0.4269 
       26450.00          0.2300          0.4080 
       26500.00          0.1949          0.4248 
       26550.00          0.1849          0.4455 
       26600.00          0.1823          0.4270 
       26650.00          0.1767          0.4263 
       26700.00          0.1855          0.4151 
       26750.00          0.1736          0.4284 
       26800.00          0.1892          0.4172 
       26850.00          0.1936          0.4268 
       26900.00          0.2213          0.4172 
       26950.00          0.1853          0.4212 
       27000.00          0.1958          0.4187 
       27050.00          0.1937          0.4096 
       27100.00          0.1810          0.4247 
       27150.00          0.1535          0.4446 
       27200.00          0.1808          0.4270 
       27250.00          0.1579          0.4335 
       27300.00          0.1736          0.4246 
       27350.00          0.2047          0.4215 
       27400.00          0.2010          0.4186 
       27450.00          0.1937          0.4126 
       27500.00          0.1666          0.4322 
       27550.00          0.1991          0.4274 
       27600.00          0.2161          0.3946 
       27650.00          0.1962          0.4131 
       27700.00          0.1806          0.4295 
       27750.00          0.1219          0.4544 
       27800.00          0.1327          0.4623 
       27850.00          0.1587          0.4347 
       27900.00          0.1921          0.4201 
       27950.00          0.1143          0.4512 
       28000.00          0.0940          0.4410 
       28050.00          0.1540          0.4204 
       28100.00          0.1977          0.3973 
       28150.00          0.1424          0.4246 
       28200.00          0.2059          0.4143 
       28250.00          0.2584          0.3682 
       28300.00          0.1546          0.4190 
       28350.00          0.0997          0.4696 
       28400.00          0.1989          0.4136 
       28450.00          0.1587          0.4152 
       28500.00          0.1563          0.4482 
       28550.00          0.1406          0.4443 
       28600.00          0.1383          0.4534 
       28650.00          0.1331          0.4580 
       28700.00          0.1898          0.4530 
       28750.00          0.1129          0.4810 
       28800.00          0.1808          0.4413 
       28850.00          0.2128          0.4385 
       28900.00          0.1957          0.4383 
       28950.00          0.2560          0.3823 
       29000.00          0.2861          0.3602 
       29050.00          0.2800          0.3843 
       29100.00          0.2631          0.3811 
       29150.00          0.2736          0.3899 
       29200.00          0.2481          0.4044 
       29250.00          0.2241          0.4268 
       29300.00          0.2174          0.4396 
       29350.00          0.1985          0.4236 
       29400.00          0.2058          0.4223 
       29450.00          0.1544          0.4660 
       29500.00          0.2158          0.4034 
       29550.00          0.1808          0.4283 
       29600.00          0.1902          0.4360 
       29650.00          0.2007          0.4170 
       29700.00          0.1668          0.4292 
       29750.00          0.1568          0.4379 
       29800.00          0.1986          0.4184 
       29850.00          0.1839          0.4183 
       29900.00          0.2072          0.4058 
       29950.00          0.1952          0.4118 
       30000.00          0.1664          0.4350 
       30050.00          0.1784          0.4330 
       30100.00          0.1731          0.4288 
       30150.00          0.2006          0.4191 
       30200.00          0.2121          0.4283 
       30250.00          0.1793          0.4219 
       30300.00          0.1324          0.4553 
       30350.00          0.1324          0.4522 
       30400.00          0.2168          0.3964 
       30450.00          0.1804          0.4354 
       30500.00          0.1805          0.4308 
       30550.00          0.1709          0.4210 
       30600.00          0.2101          0.4186 
       30650.00          0.1706          0.4163 
       30700.00          0.1979          0.4253 
       30750.00          0.1764          0.4238 
       30800.00          0.1982          0.4229 
       30850.00          0.2034          0.4100 
       30900.00          0.1881          0.4275 
       30950.00          0.1714          0.4281 
       31000.00          0.1831          0.4298 
       31050.00          0.1670          0.4298 
       31100.00          0.1651          0.4335 
       31150.00          0.2033          0.4155 
       31200.00          0.1893          0.4216 
       31250.00          0.1931          0.4275 
       31300.00          0.2271          0.4263 
       31350.00          0.2100          0.4133 
       31400.00          0.1765          0.4213 
       31450.00          0.1984          0.4285 
       31500.00          0.1844          0.4370 
       31550.00          0.2163          0.4224 
       31600.00          0.1828          0.4263 
       31650.00          0.2107          0.4221 
       31700.00          0.2093          0.4098 
       31750.00          0.1689          0.4212 
       31800.00          0.2111          0.4010 
       31850.00          0.1892          0.4288 
       31900.00          0.1870          0.4258 
       31950.00          0.1937          0.4236 
       32000.00          0.0820          0.4329 
       32050.00          0.0770          0.4403 
       32100.00          0.1249          0.4298 
       32150.00          0.1045          0.4335 
       32200.00          0.1062          0.4491 
       32250.00          0.1284          0.4259 
       32300.00          0.1062          0.4339 
       32350.00          0.1115          0.4411 
       32400.00          0.0630          0.4469 
       32450.00          0.0808          0.4322 
       32500.00          0.1380          0.4199 
       32550.00          0.0679          0.4335 
       32600.00          0.0877          0.4420 
       32650.00          0.0725          0.4426 
       32700.00          0.0651          0.4367 
       32750.00          0.0891          0.4450 
       32800.00          0.0630          0.4492 
       32850.00          0.0739          0.4415 
       32900.00          0.0512          0.4418 
       32950.00          0.1210          0.4292 
       33000.00          0.0803          0.4390 
       33050.00          0.0707          0.4410 
       33100.00          0.0553          0.4471 
       33150.00          0.0572          0.4521 
       33200.00          0.0821          0.4505 
       33250.00          0.0590          0.4471 
       33300.00          0.0725          0.4414 
       33350.00          0.0898          0.4716 
       33400.00          0.0647          0.4419 
       33450.00          0.0610          0.4519 
       33500.00          0.0929          0.4338 
       33550.00          0.1078          0.4378 
       33600.00          0.0778          0.4455 
       33650.00          0.0663          0.4465 
       33700.00          0.0692          0.4445 
       33750.00          0.0461          0.4644 
       33800.00          0.0628          0.4508 
       33850.00          0.0794          0.4437 
       33900.00          0.0945          0.4340 
       33950.00          0.0562          0.4516 
       34000.00          0.0559          0.4428 
       34050.00          0.0887          0.4384 
       34100.00          0.0661          0.4463 
       34150.00          0.0416          0.4614 
       34200.00          0.1099          0.4283 
       34250.00          0.0878          0.4394 
       34300.00          0.0566          0.4419 
       34350.00          0.0669          0.4352 
       34400.00          0.0808          0.4400 
       34450.00          0.0738          0.4327 
       34500.00          0.0743          0.4350 
       34550.00          0.0786          0.4534 
       34600.00          0.0582          0.4532 
       34650.00          0.0615          0.4414 
       34700.00          0.0899          0.4387 
       34750.00          0.0682          0.4405 
       34800.00          0.0424          0.4413 
       34850.00          0.0399          0.4389 
       34900.00          0.0504          0.4407 
       34950.00          0.0771          0.4430 
       35000.00          0.0446          0.4450 
       35050.00          0.0466          0.4554 
       35100.00          0.0360          0.4478 
       35150.00          0.0609          0.4461 
       35200.00          0.0703          0.4405 
       35250.00          0.0605          0.4477 
       35300.00          0.1003          0.4368 
       35350.00          0.0453          0.4536 
       35400.00          0.0871          0.4332 
       35450.00          0.0599          0.4407 
       35500.00          0.0583          0.4366 
       35550.00          0.0516          0.4482 
       35600.00          0.0656          0.4341 
       35650.00          0.0669          0.4375 
       35700.00          0.0724          0.4463 
       35750.00          0.0653          0.4373 
       35800.00          0.0764          0.4431 
       35850.00          0.1180          0.4287 
       35900.00          0.0648          0.4319 
       35950.00          0.0510          0.4455 
       36000.00          0.0549          0.4356 
       36050.00          0.0351          0.4439 
       36100.00          0.0463          0.4536 
       36150.00          0.1002          0.4376 
       36200.00          0.0289          0.4526 
       36250.00          0.0357          0.4445 
       36300.00          0.1079          0.4261 
       36350.00          0.1170          0.4439 
       36400.00          0.0626          0.4479 
       36450.00          0.0773          0.4514 
       36500.00          0.0563          0.4475 
       36550.00          0.0805          0.4419 
       36600.00          0.1168          0.4237 
       36650.00          0.1011          0.4307 
       36700.00          0.0538          0.4532 
       36750.00          0.0366          0.4486 
       36800.00          0.0393          0.4492 
       36850.00          0.0678          0.4462 
       36900.00          0.0629          0.4433 
       36950.00          0.0865          0.4430 
       37000.00          0.0619          0.4552 
       37050.00          0.0513          0.4464 
       37100.00          0.0476          0.4534 
       37150.00          0.0801          0.4484 
       37200.00          0.0630          0.4435 
       37250.00          0.0913          0.4334 
       37300.00          0.0647          0.4480 
       37350.00          0.0278          0.4462 
       37400.00          0.0574          0.4570 
       37450.00          0.0594          0.4321 
       37500.00          0.0796          0.4306 
       37550.00          0.0919          0.4248 
       37600.00          0.0774          0.4512 
       37650.00          0.0292          0.4517 
       37700.00          0.0603          0.4494 
       37750.00          0.1287          0.4346 
       37800.00          0.0697          0.4436 
       37850.00          0.0665          0.4416 
       37900.00          0.0335          0.4468 
       37950.00          0.0730          0.4422 
       38000.00          0.0708          0.4408 
       38050.00          0.0787          0.4467 
       38100.00          0.0770          0.4316 
       38150.00          0.0584          0.4347 
       38200.00          0.0554          0.4434 
       38250.00          0.0872          0.4469 
       38300.00          0.0789          0.4586 
       38350.00          0.1133          0.4680 
       38400.00          0.1187          0.4469 
       38450.00          0.1539          0.4360 
       38500.00          0.1690          0.4223 
       38550.00          0.1869          0.4372 
       38600.00          0.2180          0.4186 
       38650.00          0.1912          0.4184 
       38700.00          0.2406          0.4097 
       38750.00          0.2114          0.4033 
       38800.00          0.1904          0.4175 
       38850.00          0.2187          0.4245 
       38900.00          0.1927          0.4617 
       38950.00          0.2297          0.4420 
       39000.00          0.2254          0.4080 
       39050.00          0.2255          0.4241 
       39100.00          0.1703          0.4421 
       39150.00          0.1760          0.4512 
       39200.00          0.2677          0.3885 
       39250.00          0.2373          0.4098 
       39300.00          0.2076          0.4293 
       39350.00          0.2468          0.3906 
       39400.00          0.2160          0.4168 
       39450.00          0.2161          0.4272 
       39500.00          0.2563          0.3920 
       39550.00          0.3188          0.3558 
       39600.00          0.2095          0.4163 
       39650.00          0.2438          0.3949 
       39700.00          0.2643          0.3929 
       39750.00          0.2639          0.3884 
       39800.00          0.2209          0.4415 
       39850.00          0.1854          0.4590 
       39900.00          0.1891          0.4388 
       39950.00          0.2222          0.4484 
       40000.00          0.2162          0.4842 
       40050.00          0.2342          0.4843 
       40100.00          0.2663          0.4442 
       40150.00          0.2752          0.4578 
       40200.00          0.2684          0.5230 
       40250.00          0.2576          0.4877 
       40300.00          0.2614          0.4457 
       40350.00          0.2799          0.4512 
       40400.00          0.2711          0.4433 
       40450.00          0.2239          0.4515 
       40500.00          0.2514          0.4642 
       40550.00          0.2501          0.4867 
       40600.00          0.2828          0.4640 
       40650.00          0.2877          0.3989 
       40700.00          0.2772          0.4065 
       40750.00          0.3004          0.4066 
       40800.00          0.3181          0.4121 
       40850.00          0.2882          0.4266 
       40900.00          0.3057          0.4087 
       40950.00          0.2883          0.4172 
       41000.00          0.2687          0.4267 
       41050.00          0.2917          0.4134 
       41100.00          0.3147          0.4114 
       41150.00          0.3058          0.4254 
       41200.00          0.2773          0.4499 
       41250.00          0.2986          0.4646 
       41300.00          0.3069          0.4409 
       41350.00          0.2963          0.4985 
       41400.00          0.2767          0.4351 
       41450.00          0.2757          0.4838 
       41500.00          0.2916          0.4747 
       41550.00          0.2766          0.4469 
       41600.00          0.3496          0.4224 
       41650.00          0.3436          0.4553 
       41700.00          0.2984          0.4426 
       41750.00          0.2526          0.4043 
       41800.00          0.2429          0.3592 
       41850.00          0.2606          0.4032 
       41900.00          0.2154          0.4410 
       41950.00          0.2453          0.4392 
       42000.00          0.2868          0.3996 
       42050.00          0.2609          0.4159 
       42100.00          0.2656          0.4356 
       42150.00          0.2546          0.4292 
       42200.00          0.2527          0.4472 
       42250.00          0.2845          0.4193 
       42300.00          0.2754          0.4167 
       42350.00          0.2836          0.4199 
       42400.00          0.2404          0.4366 
       42450.00          0.2214          0.4454 
       42500.00          0.2561          0.4468 
       42550.00          0.2820          0.4143 
       42600.00          0.3080          0.4240 
       42650.00          0.2710          0.4270 
       42700.00          0.2640          0.3990 
       42750.00          0.2752          0.4066 
       42800.00          0.2782          0.3967 
       42850.00          0.2618          0.4021 
       42900.00          0.2770          0.3913 
       42950.00          0.2757          0.3915 
       43000.00          0.2336          0.3955 
       43050.00          0.2556          0.3928 
       43100.00          0.2408          0.3979 
       43150.00          0.3104          0.3778 
       43200.00          0.2811          0.3922 
       43250.00          0.2691          0.3953 
       43300.00          0.2913          0.3721 
       43350.00          0.3151          0.3837 
       43400.00          0.2802          0.3877 
       43450.00          0.2998          0.3813 
       43500.00          0.3041          0.3801 
       43550.00          0.2659          0.3911 
       43600.00          0.2669          0.3945 
       43650.00          0.2646          0.3987 
       43700.00          0.2916          0.3922 
       43750.00          0.2937          0.3922 
       43800.00          0.2560          0.3928 
       43850.00          0.2542          0.3944 
       43900.00          0.2653          0.3911 
       43950.00          0.2683          0.3913 
       44000.00          0.3314          0.3814 
       44050.00          0.3059          0.3795 
       44100.00          0.2285          0.4050 
       44150.00          0.2762          0.3832 
       44200.00          0.2942          0.3730 
       44250.00          0.2162          0.4017 
       44300.00          0.2784          0.3870 
       44350.00          0.2666          0.3937 
       44400.00          0.2553          0.3918 
       44450.00          0.2744          0.3826 
       44500.00          0.2951          0.3851 
       44550.00          0.3343          0.3734 
       44600.00          0.3054          0.3844 
       44650.00          0.2796          0.3887 
       44700.00          0.2784          0.3858 
       44750.00          0.2732          0.3969 
       44800.00          0.2856          0.3945 
       44850.00          0.3147          0.3774 
       44900.00          0.2817          0.3744 
       44950.00          0.2810          0.3889 
       45000.00          0.2599          0.3957 
       45050.00          0.2376          0.4020 
       45100.00          0.2520          0.4121 
       45150.00          0.2274          0.4090 
       45200.00          0.2268          0.4061 
       45250.00          0.2722          0.4040 
       45300.00          0.2707          0.3990 
       45350.00          0.2903          0.3687 
       45400.00          0.2831          0.3808 
       45450.00          0.2554          0.3983 
       45500.00          0.2773          0.3998 
       45550.00          0.3035          0.4143 
       45600.00          0.3189          0.3628 
       45650.00          0.2814          0.4325 
       45700.00          0.2996          0.3807 
       45750.00          0.3118          0.3911 
       45800.00          0.2471          0.4141 
       45850.00          0.2590          0.3675 
       45900.00          0.2375          0.4019 
       45950.00          0.1586          0.4358 
       46000.00          0.2124          0.4313 
       46050.00          0.1675          0.4476 
       46100.00          0.2046          0.4179 
       46150.00          0.1234          0.4169 
       46200.00          0.1384          0.4596 
       46250.00          0.1774          0.4581 
       46300.00          0.1742          0.4504 
       46350.00          0.1941          0.4298 
       46400.00          0.1593          0.4758 
       46450.00          0.2088          0.4197 
       46500.00          0.1953          0.4245 
       46550.00          0.1929          0.4223 
       46600.00          0.1939          0.4217 
       46650.00          0.1818          0.4321 
       46700.00          0.1896          0.4223 
       46750.00          0.2053          0.4187 
       46800.00          0.2047          0.4178 
       46850.00          0.2700          0.3749 
       46900.00          0.2269          0.3884 
       46950.00          0.2105          0.4155 
       47000.00          0.2349          0.3996 
       47050.00          0.2156          0.4132 
       47100.00          0.1793          0.4303 
       47150.00          0.2026          0.4144 
       47200.00          0.1916          0.4339 
       47250.00          0.2053          0.4021 
       47300.00          0.2079          0.4150 
       47350.00          0.1734          0.4284 
       47400.00          0.2358          0.3918 
       47450.00          0.1934          0.4242 
       47500.00          0.1887          0.4238 
       47550.00          0.2023          0.4120 
       47600.00          0.1435          0.4423 
       47650.00          0.0804          0.4388 
       47700.00          0.0715          0.4415 
       47750.00          0.0589          0.4456 
       47800.00          0.0651          0.4485 
       47850.00          0.0710          0.4333 
       47900.00          0.0826          0.4340 
       47950.00          0.0541          0.4460 
       48000.00          0.0588          0.4509 
       48050.00          0.0855          0.4473 
       48100.00          0.0694          0.4472 
       48150.00          0.0841          0.4410 
       48200.00          0.0567          0.4344 
       48250.00          0.1296          0.4219 
       48300.00          0.0820          0.4390 
       48350.00          0.0800          0.4400 
       48400.00          0.0668          0.4429 
       48450.00          0.0839          0.4361 
       48500.00          0.0750          0.4445 
       48550.00          0.0687          0.4345 
       48600.00          0.0796          0.4487 
       48650.00          0.0553          0.4349 
       48700.00          0.0847          0.4460 
       48750.00          0.0631          0.4418 
       48800.00          0.0551          0.4510 
       48850.00          0.0389          0.4328 
       48900.00          0.0619          0.4320 
       48950.00          0.1282          0.4199 
       49000.00          0.1241          0.4303 
       49050.00          0.1035          0.4629 
       49100.00          0.1654          0.4360 
       49150.00          0.1444          0.4462 
       49200.00          0.1238          0.4454 
       49250.00          0.1732          0.4134 
       49300.00          0.1036          0.4468 
       49350.00          0.1154          0.4581 
       49400.00          0.0960          0.4699 
       49450.00          0.1529          0.4362 
       49500.00          0.1344          0.4389 
       49550.00          0.1357          0.4578 
       49600.00          0.1140          0.4743 
       49650.00          0.1078          0.4697 
       49700.00          0.0849          0.4610 
       49750.00          0.1187          0.4577 
       49800.00          0.1512          0.4460 
       49850.00          0.1589          0.4407 
       49900.00          0.1216          0.4638 
       49950.00          0.1133          0.4691 
       50000.00          0.1455          0.4447 
       50050.00          0.1359          0.4501 
       50100.00          0.1320          0.4395 
       50150.00          0.1308          0.4486 
       50200.00          0.2039          0.4042 
       50250.00          0.1898          0.4114 
       50300.00          0.1644          0.4281 
       50350.00          0.1269          0.4285 
       50400.00          0.1112          0.4208 
       50450.00          0.0703          0.4410 
       50500.00          0.0668          0.4355 
       50550.00          0.0695          0.4585 
       50600.00          0.0588          0.4454 
       50650.00          0.0927          0.4400 
       50700.00          0.1437          0.4206 
       50750.00          0.1443          0.4161 
       50800.00          0.1260          0.4378 
       50850.00          0.1048          0.4336 
       50900.00          0.0859          0.4462 
       50950.00          0.0715          0.4484 
       51000.00          0.1426          0.4530 
       51050.00          0.2096          0.4071 
       51100.00          0.1321          0.4212 
       51150.00          0.0607          0.4444 
       51200.00          0.1007          0.4325 
       51250.00          0.0604          0.4568 
       51300.00          0.0512          0.4477 
       51350.00          0.0552          0.4492 
       51400.00          0.0513          0.4536 
       51450.00          0.0627          0.4292 
       51500.00          0.0684          0.4453 
       51550.00          0.0517          0.4441 
       51600.00          0.0672          0.4481 
       51650.00          0.0395          0.4387 
       51700.00          0.1014          0.4417 
       51750.00          0.0491          0.4529 
       51800.00          0.0327          0.4418 
       51850.00          0.0305          0.4464 
       51900.00          0.0654          0.4426 
       51950.00          0.0379          0.4469 
       52000.00          0.0764          0.4431 
       52050.00          0.0744          0.4521 
       52100.00          0.0687          0.4500 
       52150.00          0.0759          0.4375 
       52200.00          0.0599          0.4440 
       52250.00          0.0425          0.4493 
       52300.00          0.0614          0.4412 
       52350.00          0.0897          0.4376 
       52400.00          0.0730          0.4477 
       52450.00          0.0740          0.4349 
       52500.00          0.0678          0.4393 
       52550.00          0.0415          0.4567 
       52600.00          0.0634          0.4397 
       52650.00          0.0770          0.4455 
       52700.00          0.0777          0.4398 
       52750.00          0.0961          0.4377 
       52800.00          0.0603          0.4513 
       52850.00          0.0510          0.4423 
       52900.00          0.1140          0.4381 
       52950.00          0.0597          0.4483 
       53000.00          0.0595          0.4536 
       53050.00          0.0443          0.4549 
       53100.00          0.0340          0.4636 
       53150.00          0.1228          0.4355 
       53200.00          0.0868          0.4417 
       53250.00          0.0810          0.4432 
       53300.00          0.0776          0.4480 
       53350.00          0.0885          0.4379 
       53400.00          0.0819          0.4500 
       53450.00          0.0796          0.4433 
       53500.00          0.0609          0.4469 
       53550.00          0.0430          0.4504 
       53600.00          0.0534          0.4421 
       53650.00          0.0983          0.4435 
       53700.00          0.1472          0.4170 
       53750.00          0.0453          0.4365 
       53800.00          0.0608          0.4509 
       53850.00          0.0595          0.4538 
       53900.00          0.0370          0.4541 
       53950.00          0.0502          0.4454 
       54000.00          0.0588          0.4377 
       54050.00          0.0655          0.4343 
       54100.00          0.0811          0.4382 
       54150.00          0.0470          0.4473 
       54200.00          0.0588          0.4431 
       54250.00          0.0606          0.4377 
       54300.00          0.0745          0.4463 
       54350.00          0.1362          0.4224 
       54400.00          0.0472          0.4458 
       54450.00          0.0553          0.4502 
       54500.00          0.0555          0.4469 
       54550.00          0.0421          0.4366 
       54600.00          0.0512          0.4506 
       54650.00          0.0487          0.4407 
       54700.00          0.0518          0.4454 
       54750.00          0.0498          0.4514 
       54800.00          0.0830          0.4408 
       54850.00          0.0736          0.4477 
       54900.00          0.0848          0.4461 
       54950.00          0.0576          0.4459 
       55000.00          0.0729          0.4488 
       55050.00          0.0902          0.4416 
       55100.00          0.0864          0.4444 
       55150.00          0.1333          0.4334 
       55200.00          0.0553          0.4427 
       55250.00          0.0617          0.4415 
       55300.00          0.0747          0.4437 
       55350.00          0.0966          0.4413 
       55400.00          0.0800          0.4502 
       55450.00          0.0673          0.4535 
       55500.00          0.0842          0.4278 
       55550.00          0.0867          0.4515 
       55600.00          0.1109          0.4290 
       55650.00          0.0935          0.4429 
       55700.00          0.0740          0.4369 
       55750.00          0.0734          0.4376 
       55800.00          0.0601          0.4455 
       55850.00          0.0700          0.4364 
       55900.00          0.0739          0.4302 
       55950.00          0.0537          0.4368 
       56000.00          0.0694          0.4366 
       56050.00          0.0620          0.4348 
       56100.00          0.0412          0.4441 
       56150.00          0.0294          0.4532 
       56200.00          0.0730          0.4420 
       56250.00          0.0339          0.4556 
       56300.00          0.0548          0.4460 
       56350.00          0.0547          0.4523 
       56400.00          0.0823          0.4407 
       56450.00          0.0875          0.4385 
       56500.00          0.0745          0.4378 
       56550.00          0.0594          0.4286 
       56600.00          0.0303          0.4456 
       56650.00          0.0670          0.4451 
       56700.00          0.0751          0.4336 
       56750.00          0.0519          0.4381 
       56800.00          0.0663          0.4479 
       56850.00          0.0795          0.4328 
       56900.00          0.0823          0.4427 
       56950.00          0.0546          0.4489 
       57000.00          0.0933          0.4326 
       57050.00          0.0827          0.4465 
       57100.00          0.1121          0.4347 
       57150.00          0.1206          0.4300 
       57200.00          0.1121          0.4349 
       57250.00          0.1422          0.4113 
       57300.00          0.0850          0.4430 
       57350.00          0.1017          0.4339 
       57400.00          0.0663          0.4419 
       57450.00          0.0793          0.4423 
       57500.00          0.0470          0.4478 
       57550.00          0.0677          0.4374 
       57600.00          0.0658          0.4423 
       57650.00          0.0760          0.4439 
       57700.00          0.0630          0.4579 
       57750.00          0.0690          0.4513 
       57800.00          0.0307          0.4568 
       57850.00          0.0452          0.4482 
       57900.00          0.0633          0.4379 
       57950.00          0.0613          0.4544 
       58000.00          0.0754          0.4520 
       58050.00          0.0461          0.4575 
       58100.00          0.0533          0.4407 
       58150.00          0.0980          0.4359 
       58200.00          0.0653          0.4338 
       58250.00          0.0665          0.4392 
       58300.00          0.0688          0.4317 
       58350.00          0.0681          0.4524 
       58400.00          0.0692          0.4424 
       58450.00          0.0696          0.4560 
       58500.00          0.0510          0.4477 
       58550.00          0.0546          0.4384 
       58600.00          0.0783          0.4393 
       58650.00          0.0633          0.4480 
       58700.00          0.0684          0.4323 
       58750.00          0.0685          0.4412 
       58800.00          0.0744          0.4444 
       58850.00          0.0979          0.4397 
       58900.00          0.0647          0.4391 
       58950.00          0.0959          0.4355 
       59000.00          0.0838          0.4333 
       59050.00          0.1096          0.4367 
       59100.00          0.0592          0.4367 
       59150.00          0.0753          0.4479 
       59200.00          0.0468          0.4391 
       59250.00          0.0666          0.4394 
       59300.00          0.0603          0.4388 
       59350.00          0.0643          0.4417 
       59400.00          0.0658          0.4326 
       59450.00          0.0626          0.4512 
       59500.00          0.0370          0.4408 
       59550.00          0.0705          0.4449 
       59600.00          0.0620          0.4385 
       59650.00          0.0621          0.4452 
       59700.00          0.0368          0.4499 
       59750.00          0.0547          0.4459 
       59800.00          0.0595          0.4509 
       59850.00          0.0461          0.4378 
       59900.00          0.0998          0.4469 
       59950.00          0.0884          0.4381 
       60000.00          0.0605          0.4403 
       60050.00          0.0672          0.4442 
       60100.00          0.0597          0.4390 
       60150.00          0.0774          0.4434 
       60200.00          0.0463          0.4535 
       60250.00          0.0875          0.4404 
       60300.00          0.0769          0.4431 
       60350.00          0.1259          0.4222 
       60400.00          0.0743          0.4442 
       60450.00          0.0860          0.4473 
       60500.00          0.0757          0.4507 
       60550.00          0.1336          0.4144 
       60600.00          0.0933          0.4386 
       60650.00          0.0783          0.4444 
       60700.00          0.0738          0.4443 
       60750.00          0.0555          0.4481 
       60800.00          0.0812          0.4492 
       60850.00          0.0316          0.4531 
       60900.00          0.0947          0.4443 
       60950.00          0.0740          0.4440 
       61000.00          0.0565          0.4508 
       61050.00          0.0483          0.4430 
       61100.00          0.0613          0.4377 
       61150.00          0.0652          0.4448 
       61200.00          0.0616          0.4369 
       61250.00          0.0698          0.4385 
       61300.00          0.0671          0.4400 
       61350.00          0.0767          0.4298 
       61400.00          0.0906          0.4338 
       61450.00          0.0531          0.4466 
       61500.00          0.0776          0.4418 
       61550.00          0.0743          0.4466 
       61600.00          0.0734          0.4511 
       61650.00          0.0829          0.4358 
       61700.00          0.0404          0.4485 
       61750.00          0.0707          0.4532 
       61800.00          0.0668          0.4269 
       61850.00          0.0875          0.4331 
       61900.00          0.0607          0.4534 
       61950.00          0.0605          0.4431 
       62000.00          0.0408          0.4407 
       62050.00          0.0769          0.4266 
       62100.00          0.0528          0.4447 
       62150.00          0.0664          0.4506 
       62200.00          0.0525          0.4481 
       62250.00          0.1331          0.4402 
       62300.00          0.1261          0.4286 
       62350.00          0.1166          0.4648 
       62400.00          0.0793          0.4433 
       62450.00          0.0763          0.4487 
       62500.00          0.0918          0.4452 
       62550.00          0.0823          0.4318 
       62600.00          0.0492          0.4462 
       62650.00          0.0898          0.4451 
       62700.00          0.0345          0.4515 
       62750.00          0.0724          0.4447 
       62800.00          0.0424          0.4357 
       62850.00          0.0555          0.4381 
       62900.00          0.0677          0.4354 
       62950.00          0.0863          0.4562 
       63000.00          0.0796          0.4548 
       63050.00          0.0683          0.4455 
       63100.00          0.0445          0.4523 
       63150.00          0.0371          0.4529 
       63200.00          0.0448          0.4405 
       63250.00          0.0510          0.4474 
       63300.00          0.1242          0.4176 
       63350.00          0.0822          0.4468 
       63400.00          0.0880          0.4447 
       63450.00          0.0793          0.4378 
       63500.00          0.0745          0.4439 
       63550.00          0.0753          0.4353 
       63600.00          0.0503          0.4510 
       63650.00          0.0582          0.4427 
       63700.00          0.0883          0.4403 
       63750.00          0.0597          0.4431 
       63800.00          0.0252          0.4423 
       63850.00          0.0722          0.4360 
       63900.00          0.0643          0.4526 
       63950.00          0.0909          0.4495 
       64000.00          0.0715          0.4452 
       64050.00          0.0794          0.4456 
       64100.00          0.0675          0.4393 
       64150.00          0.0715          0.4375 
       64200.00          0.0569          0.4301 
       64250.00          0.0498          0.4433 
       64300.00          0.0891          0.4489 
       64350.00          0.0586          0.4475 
       64400.00          0.0509          0.4475 
       64450.00          0.0689          0.4502 
       64500.00          0.0616          0.4504 
       64550.00          0.0636          0.4544 
       64600.00          0.0653          0.4392 
       64650.00          0.0822          0.4450 
       64700.00          0.0472          0.4428 
       64750.00          0.0518          0.4493 
       64800.00          0.0599          0.4384 
       64850.00          0.0691          0.4385 
       64900.00          0.1036          0.4524 
       64950.00          0.0357          0.4516 
       65000.00          0.0366          0.4459 
       65050.00          0.0392          0.4457 
       65100.00          0.0299          0.4511 
       65150.00          0.0499          0.4478 
       65200.00          0.0541          0.4458 
       65250.00          0.0317          0.4528 
       65300.00          0.0798          0.4472 
       65350.00          0.0938          0.4514 
       65400.00          0.0996          0.4366 
       65450.00          0.1394          0.4175 
       65500.00          0.0606          0.4348 
       65550.00          0.0697          0.4451 
       65600.00          0.0643          0.4445 
       65650.00          0.0617          0.4417 
       65700.00          0.0681          0.4396 
       65750.00          0.0790          0.4373 
       65800.00          0.0769          0.4482 
       65850.00          0.0400          0.4589 
       65900.00          0.0625          0.4526 
       65950.00          0.0476          0.4367 
       66000.00          0.0589          0.4318 
       66050.00          0.0701          0.4465 
       66100.00          0.0716          0.4536 
       66150.00          0.0583          0.4340 
       66200.00          0.0622          0.4375 
       66250.00          0.0711          0.4416 
       66300.00          0.0511          0.4429 
       66350.00          0.0689          0.4391 
       66400.00          0.0677          0.4501 
       66450.00          0.1185          0.4225 
       66500.00          0.0494          0.4471 
       66550.00          0.0555          0.4542 
       66600.00          0.0759          0.4376 
       66650.00          0.0630          0.4429 
       66700.00          0.0713          0.4468 
       66750.00          0.0662          0.4423 
       66800.00          0.0661          0.4425 
       66850.00          0.0499          0.4495 
       66900.00          0.0589          0.4330 
       66950.00          0.0527          0.4740 
       67000.00          0.0326          0.4561 
       67050.00          0.0494          0.4517 
       67100.00          0.0693          0.4515 
       67150.00          0.0340          0.4520 
       67200.00          0.0360          0.4357 
       67250.00          0.0809          0.4534 
       67300.00          0.0757          0.4449 
       67350.00          0.0318          0.4497 
       67400.00          0.0773          0.4473 
       67450.00          0.0802          0.4443 
       67500.00          0.1069          0.4307 
       67550.00          0.0762          0.4674 
       67600.00          0.0706          0.4653 
       67650.00          0.1362          0.4548 
       67700.00          0.1736          0.4328 
       67750.00          0.1923          0.4173 
       67800.00          0.2125          0.4078 
       67850.00          0.1957          0.4215 
       67900.00          0.2014          0.4169 
       67950.00          0.1638          0.4316 
       68000.00          0.2037          0.4132 
       68050.00          0.2047          0.4117 
       68100.00          0.2307          0.3972 
       68150.00          0.2020          0.4085 
       68200.00          0.1678          0.4452 
       68250.00          0.1739          0.4224 
       68300.00          0.2106          0.4077 
       68350.00          0.2221          0.4119 
       68400.00          0.2073          0.4016 
       68450.00          0.2432          0.3782 
       68500.00          0.2101          0.4093 
       68550.00          0.2049          0.4072 
       68600.00          0.1952          0.4127 
       68650.00          0.2072          0.4241 
       68700.00          0.2077          0.4163 
       68750.00          0.2024          0.4182 
       68800.00          0.2241          0.4073 
       68850.00          0.1939          0.4289 
       68900.00          0.1718          0.4283 
       68950.00          0.1967          0.4246 
       69000.00          0.1903          0.4187 
       69050.00          0.1626          0.4273 
       69100.00          0.2042          0.4056 
       69150.00          0.2183          0.4146 
       69200.00          0.1920          0.4352 
       69250.00          0.1993          0.4343 
       69300.00          0.2088          0.4170 
       69350.00          0.2183          0.4259 
       69400.00          0.2351          0.4168 
       69450.00          0.2009          0.4467 
       69500.00          0.2140          0.4235 
       69550.00          0.2093          0.4396 
       69600.00          0.2510          0.3854 
       69650.00          0.2680          0.3716 
       69700.00          0.2509          0.3725 
       69750.00          0.2420          0.3899 
       69800.00          0.2320          0.3857 
       69850.00          0.2320          0.3994 
       69900.00          0.2346          0.3972 
       69950.00          0.2250          0.4017 
       70000.00          0.1971          0.4032 
       70050.00          0.1904          0.4249 
       70100.00          0.1664          0.4227 
       70150.00          0.2251          0.4057 
       70200.00          0.1851          0.4257 
       70250.00          0.2192          0.4097 
       70300.00          0.2047          0.4135 
       70350.00          0.1846          0.4261 
       70400.00          0.1712          0.4319 
       70450.00          0.1930          0.4146 
       70500.00          0.1817          0.4301 
       70550.00          0.2112          0.4229 
       70600.00          0.1845          0.4332 
       70650.00          0.1728          0.4359 
       70700.00          0.1113          0.4586 
       70750.00          0.1252          0.4509 
       70800.00          0.1216          0.4662 
       70850.00          0.1031          0.4573 
       70900.00          0.1734          0.4407 
       70950.00          0.1926          0.4229 
       71000.00          0.2216          0.4031 
       71050.00          0.2132          0.4089 
       71100.00          0.1924          0.4257 
       71150.00          0.1815          0.4285 
       71200.00          0.1753          0.4302 
       71250.00          0.1732          0.4270 
       71300.00          0.2070          0.4049 
       71350.00          0.1764          0.4347 
       71400.00          0.2015          0.4211 
       71450.00          0.1806          0.4144 
       71500.00          0.1783          0.4292 
       71550.00          0.1905          0.4178 
       71600.00          0.1702          0.4318 
       71650.00          0.2025          0.4125 
       71700.00          0.1953          0.4227 
       71750.00          0.1797          0.4267 
       71800.00          0.1911          0.4178 
       71850.00          0.1838          0.4265 
       71900.00          0.1371          0.4645 
       71950.00          0.0939          0.4400 
       72000.00          0.0790          0.4522 
       72050.00          0.1193          0.4311 
       72100.00          0.1447          0.4010 
       72150.00          0.1820          0.4217 
       72200.00          0.1770          0.4056 
       72250.00          0.2050          0.3794 
       72300.00          0.2683          0.3564 
       72350.00          0.2481          0.4012 
       72400.00          0.2389          0.3818 
       72450.00          0.2695          0.3569 
       72500.00          0.2285          0.3697 
       72550.00          0.2458          0.3685 
       72600.00          0.2358          0.3915 
       72650.00          0.2108          0.4162 
       72700.00          0.1748          0.3766 
       72750.00          0.2298          0.4345 
       72800.00          0.2349          0.4199 
       72850.00          0.2223          0.4305 
       72900.00          0.1674          0.4061 
       72950.00          0.1540          0.4294 
       73000.00          0.0949          0.4536 
       73050.00          0.0895          0.4457 
       73100.00          0.1541          0.4673 
       73150.00          0.1304          0.4366 
       73200.00          0.1203          0.4262 
       73250.00          0.1901          0.4554 
       73300.00          0.1710          0.4222 
       73350.00          0.1511          0.4179 
       73400.00          0.1423          0.4460 
       73450.00          0.1251          0.4380 
       73500.00          0.1511          0.4293 
       73550.00          0.0927          0.4571 
       73600.00          0.0642          0.4470 
       73650.00          0.0596          0.4430 
       73700.00          0.0874          0.4423 
       73750.00          0.0871          0.4381 
       73800.00          0.1283          0.4186 
       73850.00          0.0553          0.4451 
       73900.00          0.0750          0.4406 
       73950.00          0.0978          0.4491 
       74000.00          0.0770          0.4434 
       74050.00          0.0601          0.4390 
       74100.00          0.0707          0.4533 
       74150.00          0.0407          0.4545 
       74200.00          0.1109          0.4411 
       74250.00          0.0533          0.4514 
       74300.00          0.0520          0.4568 
       74350.00          0.1084          0.4516 
       74400.00          0.1506          0.4484 
       74450.00          0.1186          0.4406 
       74500.00          0.1321          0.4530 
       74550.00          0.2075          0.4086 
       74600.00          0.1816          0.4217 
       74650.00          0.1900          0.4221 
       74700.00          0.1830          0.4283 
       74750.00          0.1672          0.4345 
       74800.00          0.1575          0.4437 
       74850.00          0.1676          0.4366 
       74900.00          0.2152          0.4099 
       74950.00          0.1852          0.4310 
       75000.00          0.2152          0.4263 
       75050.00          0.2496          0.3713 
       75100.00          0.2328          0.3770 
       75150.00          0.2157          0.3912 
       75200.00          0.2130          0.4052 
       75250.00          0.1867          0.4328 
       75300.00          0.2553          0.3772 
       75350.00          0.1618          0.4394 
       75400.00          0.1633          0.4490 
       75450.00          0.1721          0.4380 
       75500.00          0.2602          0.3896 
       75550.00          0.2612          0.3840 
       75600.00          0.2120          0.4360 
       75650.00          0.2209          0.4143 
       75700.00          0.2750          0.3919 
       75750.00          0.1988          0.4487 
       75800.00          0.1577          0.4515 
       75850.00          0.1641          0.4570 
       75900.00          0.1650          0.4449 
       75950.00          0.1479          0.4122 
       76000.00          0.0821          0.4572 
       76050.00          0.0951          0.4411 
       76100.00          0.0949          0.4551 
       76150.00          0.0629          0.4703 
       76200.00          0.1245          0.4458 
       76250.00          0.1359          0.4443 
       76300.00          0.1103          0.4585 
       76350.00          0.0726          0.4575 
       76400.00          0.0530          0.4441 
       76450.00          0.0728          0.4521 
       76500.00          0.0891          0.4384 
       76550.00          0.0820          0.4474 
       76600.00          0.0997          0.4311 
       76650.00          0.0879          0.4511 
       76700.00          0.0733          0.4500 
       76750.00          0.1345          0.4539 
       76800.00          0.1267          0.4559 
       76850.00          0.1076          0.4575 
       76900.00          0.1309          0.4535 
       76950.00          0.1690          0.4301 
       77000.00          0.2187          0.3995 
       77050.00          0.1813          0.4300 
       77100.00          0.1783          0.4415 
       77150.00          0.1730          0.4410 
       77200.00          0.1345          0.4589 
       77250.00          0.1051          0.4679 
       77300.00          0.0986          0.4623 
       77350.00          0.0584          0.4506 
       77400.00          0.1114          0.4225 
       77450.00          0.0588          0.4479 
       77500.00          0.1034          0.4582 
       77550.00          0.1260          0.4562 
       77600.00          0.1340          0.4453 
       77650.00          0.1005          0.4448 
       77700.00          0.0881          0.4431 
       77750.00          0.0609          0.4417 
       77800.00          0.0777          0.4505 
       77850.00          0.0759          0.4409 
       77900.00          0.0462          0.4462 
       77950.00          0.0497          0.4484 
       78000.00          0.0557          0.4467 
       78050.00          0.0987          0.4281 
       78100.00          0.0719          0.4384 
       78150.00          0.0602          0.4481 
       78200.00          0.0651          0.4495 
       78250.00          0.1037          0.4387 
       78300.00          0.0911          0.4402 
       78350.00          0.0568          0.4378 
       78400.00          0.0344          0.4400 
       78450.00          0.0866          0.4377 
       78500.00          0.0804          0.4369 
       78550.00          0.1080          0.4384 
       78600.00          0.0417          0.4459 
       78650.00          0.0875          0.4541 
       78700.00          0.0429          0.4352 
       78750.00          0.0539          0.4370 
       78800.00          0.0777          0.4390 
       78850.00          0.1094          0.4132 
       78900.00          0.0982          0.4357 
       78950.00          0.1183          0.4372 
       79000.00          0.1239          0.4186 
       79050.00          0.0860          0.4365 
       79100.00          0.0816          0.4417 
       79150.00          0.0956          0.4435 
       79200.00          0.1159          0.4479 
       79250.00          0.0544          0.4559 
       79300.00          0.0630          0.4397 
       79350.00          0.0646          0.4420 
       79400.00          0.0604          0.4452 
       79450.00          0.1057          0.4363 
       79500.00          0.0767          0.4387 
       79550.00          0.0776          0.4400 
       79600.00          0.0424          0.4501 
       79650.00          0.0829          0.4392 
       79700.00          0.0739          0.4490 
       79750.00          0.0658          0.4430 
       79800.00          0.0822          0.4281 
       79850.00          0.0393          0.4342 
       79900.00          0.0862          0.4353 
       79950.00          0.0668          0.4560 
       80000.00          0.0890          0.4448 
       80050.00          0.0689          0.4435 
       80100.00          0.0894          0.4319 
       80150.00          0.0797          0.4343 
       80200.00          0.0877          0.4421 
       80250.00          0.0452          0.4409 
       80300.00          0.1098          0.4203 
       80350.00          0.0956          0.4373 
       80400.00          0.0796          0.4394 
       80450.00          0.1090          0.4298 
       80500.00          0.1605          0.4033 
       80550.00          0.0877          0.4459 
       80600.00          0.1331          0.4212 
       80650.00          0.0633          0.4414 
       80700.00          0.0722          0.4434 
       80750.00          0.0681          0.4445 
       80800.00          0.0663          0.4559 
       80850.00          0.0515          0.4463 
       80900.00          0.0364          0.4520 
       80950.00          0.0433          0.4501 
       81000.00          0.0733          0.4413 
       81050.00          0.0760          0.4424 
       81100.00          0.0744          0.4363 
       81150.00          0.0816          0.4454 
       81200.00          0.0762          0.4474 
       81250.00          0.0723          0.4382 
       81300.00          0.0878          0.4389 
       81350.00          0.0320          0.4409 
       81400.00          0.0486          0.4489 
       81450.00          0.0627          0.4467 
       81500.00          0.1278          0.4277 
       81550.00          0.1116          0.4336 
       81600.00          0.0628          0.4425 
       81650.00          0.0806          0.4438 
       81700.00          0.0585          0.4526 
       81750.00          0.0299          0.4430 
       81800.00          0.0557          0.4423 
       81850.00          0.1108          0.4256 
       81900.00          0.0876          0.4403 
       81950.00          0.0883          0.4341 
       82000.00          0.0823          0.4428 
       82050.00          0.0775          0.4396 
       82100.00          0.0606          0.4591 
       82150.00          0.0700          0.4414 
       82200.00          0.1098          0.4321 
       82250.00          0.1264          0.4199 
       82300.00          0.1170          0.4163 
       82350.00          0.0850          0.4391 
       82400.00          0.0786          0.4419 
       82450.00          0.0511          0.4437 
       82500.00          0.0664          0.4501 
       82550.00          0.0861          0.4425 
       82600.00          0.0734          0.4368 
       82650.00          0.0586          0.4344 
       82700.00          0.0769          0.4476 
       82750.00          0.0905          0.4463 
       82800.00          0.1323          0.4299 
       82850.00          0.0729          0.4463 
       82900.00          0.0793          0.4494 
       82950.00          0.0464          0.4482 
       83000.00          0.0878          0.4457 
       83050.00          0.0992          0.4447 
       83100.00          0.1454          0.4184 
       83150.00          0.1059          0.4198 
       83200.00          0.0553          0.4396 
       83250.00          0.0725          0.4484 
       83300.00          0.0549          0.4421 
       83350.00          0.1243          0.4331 
       83400.00          0.1856          0.4241 
       83450.00          0.2415          0.3867 
       83500.00          0.2327          0.3871 
       83550.00          0.2209          0.3990 
       83600.00          0.1798          0.4280 
       83650.00          0.1638          0.4286 
       83700.00          0.1980          0.4159 
       83750.00          0.1788          0.4219 
       83800.00          0.1425          0.4484 
       83850.00          0.1033          0.4431 
       83900.00          0.1003          0.4501 
       83950.00          0.0647          0.4353 
       84000.00          0.0886          0.4413 
       84050.00          0.1101          0.4565 
       84100.00          0.1397          0.4548 
       84150.00          0.1316          0.4606 
       84200.00          0.1599          0.4380 
       84250.00          0.2054          0.4143 
       84300.00          0.2127          0.4143 
       84350.00          0.2069          0.4251 
       84400.00          0.2365          0.4090 
       84450.00          0.2978          0.3590 
       84500.00          0.2545          0.3769 
       84550.00          0.2085          0.4178 
       84600.00          0.1727          0.4261 
       84650.00          0.1924          0.4217 
       84700.00          0.2015          0.4134 
       84750.00          0.2014          0.4211 
       84800.00          0.1623          0.4384 
       84850.00          0.1919          0.4250 
       84900.00          0.1880          0.4301 
       84950.00          0.1938          0.4247 
       85000.00          0.1701          0.4280 
       85050.00          0.1714          0.4443 
       85100.00          0.1923          0.4288 
       85150.00          0.1994          0.4252 
       85200.00          0.1992          0.4226 
       85250.00          0.1805          0.4322 
       85300.00          0.2097          0.4213 
       85350.00          0.2108          0.4026 
       85400.00          0.1913          0.4288 
       85450.00          0.1979          0.4167 
       85500.00          0.1822          0.4224 
       85550.00          0.1908          0.4270 
       85600.00          0.1995          0.4103 
       85650.00          0.2054          0.4214 
       85700.00          0.2291          0.4027 
       85750.00          0.1988          0.4168 
       85800.00          0.2317          0.3987 
       85850.00          0.2278          0.3997 
       85900.00          0.1997          0.4185 
       85950.00          0.1516          0.4403 
       86000.00          0.1278          0.4511 
       86050.00          0.0736          0.4598 
       86100.00          0.1216          0.4454 
       86150.00          0.1757          0.4284 
       86200.00          0.2501          0.3925 
       86250.00          0.2306          0.3904 
       86300.00          0.2358          0.4045 
       86350.00          0.2376          0.4030 
       86400.00          0.2246          0.3984 
       86450.00          0.2033          0.4090 
       86500.00          0.1667          0.4286 
       86550.00          0.2223          0.3981 
       86600.00          0.1955          0.4303 
       86650.00          0.1687          0.4248 
       86700.00          0.2032          0.4186 
       86750.00          0.1901          0.4182 
       86800.00          0.1871          0.4191 
       86850.00          0.1769          0.4292 
       86900.00          0.2062          0.4243 
       86950.00          0.2071          0.4188 
       87000.00          0.0937          0.4443 
       87050.00          0.0610          0.4535 
       87100.00          0.0634          0.4550 
       87150.00          0.0659          0.4617 
       87200.00          0.0677          0.4543 
       87250.00          0.0707          0.4625 
       87300.00          0.0266          0.4451 
       87350.00          0.0545          0.4515 
       87400.00          0.0974          0.4316 
       87450.00          0.0975          0.4368 
       87500.00          0.1019          0.4344 
       87550.00          0.0886          0.4369 
       87600.00          0.0632          0.4456 
       87650.00          0.0600          0.4505 
       87700.00          0.0465          0.4432 
       87750.00          0.0678          0.4463 
       87800.00          0.0803          0.4507 
       87850.00          0.0551          0.4539 
       87900.00          0.0726          0.4537 
       87950.00          0.0631          0.4588 
       88000.00          0.0891          0.4435 
       88050.00          0.0844          0.4386 
       88100.00          0.0988          0.4398 
       88150.00          0.0938          0.4342 
       88200.00          0.0575          0.4412 
       88250.00          0.0438          0.4541 
       88300.00          0.0637          0.4496 
       88350.00          0.0585          0.4398 
       88400.00          0.0506          0.4513 
       88450.00          0.0699          0.4371 
       88500.00          0.0505          0.4423 
       88550.00          0.0459          0.4393 
       88600.00          0.0458          0.4455 
       88650.00          0.0792          0.4447 
       88700.00          0.0629          0.4370 
       88750.00          0.0657          0.4453 
       88800.00          0.0659          0.4475 
       88850.00          0.0434          0.4450 
       88900.00          0.0663          0.4330 
       88950.00          0.0732          0.4355 
       89000.00          0.0696          0.4455 
       89050.00          0.0912          0.4321 
       89100.00          0.0734          0.4438 
       89150.00          0.0698          0.4407 
       89200.00          0.0653          0.4368 
       89250.00          0.0791          0.4429 
       89300.00          0.1014          0.4402 
       89350.00          0.0841          0.4407 
       89400.00          0.0819          0.4441 
       89450.00          0.0820          0.4440 
       89500.00          0.0806          0.4460 
       89550.00          0.0569          0.4386 
       89600.00          0.0720          0.4475 
       89650.00          0.1263          0.4325 
       89700.00          0.0897          0.4409 
       89750.00          0.0772          0.4542 
       89800.00          0.0591          0.4427 
       89850.00          0.0693          0.4374 
       89900.00          0.0902          0.4431 
       89950.00          0.0857          0.4420 
       90000.00          0.0539          0.4451 
       90050.00          0.0883          0.4450 
       90100.00          0.0692          0.4357 
       90150.00          0.0955          0.4336 
       90200.00          0.1365          0.4130 
       90250.00          0.1026          0.4379 
       90300.00          0.0812          0.4464 
       90350.00          0.0546          0.4408 
       90400.00          0.0512          0.4583 
       90450.00          0.0699          0.4586 
       90500.00          0.0862          0.4441 
       90550.00          0.0791          0.4400 
       90600.00          0.0796          0.4311 
       90650.00          0.0839          0.4333 
       90700.00          0.0760          0.4378 
       90750.00          0.0737          0.4457 
       90800.00          0.0619          0.4457 
       90850.00          0.0659          0.4443 
       90900.00          0.0657          0.4563 
       90950.00          0.0618          0.4437 
       91000.00          0.0699          0.4443 
       91050.00          0.0540          0.4361 
       91100.00          0.0796          0.4418 
       91150.00          0.1244          0.4322 
       91200.00          0.0683          0.4498 
       91250.00          0.1028          0.4452 
       91300.00          0.0786          0.4485 
       91350.00          0.0663          0.4434 
       91400.00          0.0848          0.4405 
       91450.00          0.0587          0.4434 
       91500.00          0.0640          0.4426 
       91550.00          0.0678          0.4431 
       91600.00          0.0769          0.4506 
       91650.00          0.0693          0.4386 
       91700.00          0.0902          0.4337 
       91750.00          0.0857          0.4323 
       91800.00          0.0345          0.4501 
       91850.00          0.0444          0.4446 
       91900.00          0.0468          0.4556 
       91950.00          0.1166          0.4385 
       92000.00          0.0771          0.4468 
       92050.00          0.0627          0.4398 
       92100.00          0.0647          0.4378 
       92150.00          0.0542          0.4540 
       92200.00          0.0390          0.4503 
       92250.00          0.0645          0.4324 
       92300.00          0.0635          0.4383 
       92350.00          0.0555          0.4487 
       92400.00          0.0663          0.4423 
       92450.00          0.0494          0.4487 
       92500.00          0.0667          0.4471 
       92550.00          0.0533          0.4558 
       92600.00          0.0696          0.4469 
       92650.00          0.0649          0.4382 
       92700.00          0.0580          0.4300 
       92750.00          0.0776          0.4457 
       92800.00          0.0443          0.4434 
       92850.00          0.0642          0.4345 
       92900.00          0.0602          0.4458 
       92950.00          0.0794          0.4480 
       93000.00          0.0787          0.4337 
       93050.00          0.0608          0.4503 
       93100.00          0.0776          0.4481 
       93150.00          0.0928          0.4456 
       93200.00          0.0585          0.4377 
       93250.00          0.0712          0.4521 
       93300.00          0.0408          0.4494 
       93350.00          0.0582          0.4439 
       93400.00          0.0569          0.4424 
       93450.00          0.0804          0.4349 
       93500.00          0.0455          0.4560 
       93550.00          0.0790          0.4324 
       93600.00          0.0485          0.4394 
       93650.00          0.1098          0.4384 
       93700.00          0.0967          0.4341 
       93750.00          0.0696          0.4425 
       93800.00          0.0530          0.4499 
       93850.00          0.0558          0.4472 
       93900.00          0.0607          0.4451 
       93950.00          0.0618          0.4447 
       94000.00          0.0654          0.4395 
       94050.00          0.0640          0.4514 
       94100.00          0.0667          0.4610 
       94150.00          0.0733          0.4383 
       94200.00          0.0632          0.4526 
       94250.00          0.0549          0.4435 
       94300.00          0.0763          0.4410 
       94350.00          0.0832          0.4412 
       94400.00          0.0881          0.4404 
       94450.00          0.0617          0.4423 
       94500.00          0.0455          0.4373 
       94550.00          0.0753          0.4569 
       94600.00          0.0480          0.4541 
       94650.00          0.0634          0.4514 
       94700.00          0.0382          0.4564 
       94750.00          0.0876          0.4542 
       94800.00          0.0381          0.4449 
       94850.00          0.0697          0.4477 
       94900.00          0.0786          0.4437 
       94950.00          0.0582          0.4497 
       95000.00          0.0732          0.4471 
       95050.00          0.0987          0.4270 
       95100.00          0.0761          0.4363 
       95150.00          0.0763          0.4442 
       95200.00          0.0497          0.4447 
       95250.00          0.0607          0.4295 
       95300.00          0.1215          0.4290 
       95350.00          0.1018          0.4373 
       95400.00          0.0950          0.4484 
       95450.00          0.0803          0.4374 
       95500.00          0.0809          0.4365 
       95550.00          0.0303          0.4547 
       95600.00          0.0713          0.4682 
       95650.00          0.0665          0.4427 
       95700.00          0.0783          0.4478 
       95750.00          0.0785          0.4390 
       95800.00          0.0390          0.4456 
       95850.00          0.0936          0.4459 
       95900.00          0.0900          0.4320 
       95950.00          0.0775          0.4536 
       96000.00          0.0663          0.4367 
       96050.00          0.1025          0.4429 
       96100.00          0.0340          0.4568 
       96150.00          0.0728          0.4334 
       96200.00          0.0614          0.4436 
       96250.00          0.0700          0.4427 
       96300.00          0.0699          0.4429 
       96350.00          0.0530          0.4477 
       96400.00          0.0480          0.4517 
       96450.00          0.0535          0.4471 
       96500.00          0.0955          0.4309 
       96550.00          0.1475          0.4127 
       96600.00          0.0630          0.4379 
       96650.00          0.0816          0.4369 
       96700.00          0.0403          0.4528 
       96750.00          0.0910          0.4333 
       96800.00          0.0528          0.4364 
       96850.00          0.0584          0.4351 
       96900.00          0.1072          0.4500 
       96950.00          0.0629          0.4445 
       97000.00          0.1120          0.4232 
       97050.00          0.0830          0.4346 
       97100.00          0.0610          0.4570 
       97150.00          0.1567          0.3962 
       97200.00          0.1257          0.4296 
       97250.00          0.1555          0.4203 
       97300.00          0.1107          0.4534 
       97350.00          0.1523          0.4275 
       97400.00          0.0855          0.4786 
       97450.00          0.1424          0.4482 
       97500.00          0.1050          0.4776 
       97550.00          0.1038          0.4671 
       97600.00          0.1406          0.4431 
       97650.00          0.1643          0.4326 
       97700.00          0.1346          0.4562 
       97750.00          0.0951          0.4582 
       97800.00          0.1404          0.4404 
       97850.00          0.1513          0.4543 
       97900.00          0.1717          0.4410 
       97950.00          0.1838          0.4272 
       98000.00          0.1235          0.4444 
       98050.00          0.1101          0.4981 
       98100.00          0.1105          0.4525 
       98150.00          0.1401          0.4404 
       98200.00          0.0990          0.4905 
       98250.00          0.0951          0.4939 
       98300.00          0.1164          0.4689 
       98350.00          0.1265          0.4721 
       98400.00          0.2094          0.4055 
       98450.00          0.1187          0.4510 
       98500.00          0.1334          0.4475 
       98550.00          0.1545          0.4323 
       98600.00          0.0980          0.4425 
       98650.00          0.1524          0.4319 
       98700.00          0.1494          0.4410 
       98750.00          0.1683          0.4100 
       98800.00          0.1951          0.4065 
       98850.00          0.1864          0.4034 
       98900.00          0.1749          0.4242 
       98950.00          0.1719          0.4298 
       99000.00          0.1276          0.4586 
       99050.00          0.1522          0.4423 
       99100.00          0.1111          0.4458 
       99150.00          0.1261          0.4506 
       99200.00          0.1267          0.4560 
       99250.00          0.1563          0.4356 
       99300.00          0.1285          0.4522 
       99350.00          0.1790          0.4185 
       99400.00          0.1712          0.4437 
       99450.00          0.2078          0.4147 
       99500.00          0.2254          0.4067 
       99550.00          0.1791          0.4347 
       99600.00          0.1491          0.4343 
       99650.00          0.1433          0.4479 
       99700.00          0.1257          0.4589 
       99750.00          0.1040          0.4761 
       99800.00          0.0941          0.4616 
       99850.00          0.1166          0.4490 
       99900.00          0.1215          0.4462 
       99950.00          0.1676          0.4401 
      100000.00          0.1592          0.4340 
