@    xaxis  label "t"
@    yaxis  label "RMSD (nm)"
           0.00          0.0000          0.4517 
          50.00          0.0565          0.4485 
         100.00          0.1076          0.4534 
         150.00          0.1618          0.4547 
         200.00          0.1956          0.4362 
         250.00          0.1452          0.4459 
         300.00          0.1108          0.4423 
         350.00          0.1487          0.4377 
         400.00          0.1405          0.4267 
         450.00          0.1457          0.4281 
         500.00          0.2258          0.4140 
         550.00          0.1848          0.4370 
         600.00          0.1876          0.4431 
         650.00          0.1974          0.4483 
         700.00          0.2043          0.4387 
         750.00          0.2627          0.3915 
         800.00          0.2472          0.3947 
         850.00          0.2558          0.3964 
         900.00          0.2787          0.3768 
         950.00          0.2798          0.3872 
        1000.00          0.2474          0.3979 
        1050.00          0.2846          0.3944 
        1100.00          0.2672          0.3836 
        1150.00          0.2419          0.4059 
        1200.00          0.2578          0.3963 
        1250.00          0.2691          0.3987 
        1300.00          0.3031          0.3722 
        1350.00          0.2371          0.4040 
        1400.00          0.3134          0.3807 
        1450.00          0.2982          0.3723 
        1500.00          0.3140          0.3748 
        1550.00          0.2611          0.3940 
        1600.00          0.2622          0.3916 
        1650.00          0.2766          0.4009 
        1700.00          0.3017          0.3665 
        1750.00          0.2350          0.4101 
        1800.00          0.2327          0.4177 
        1850.00          0.2406          0.3961 
        1900.00          0.2356          0.4226 
        1950.00          0.1953          0.4319 
        2000.00          0.1560          0.4762 
        2050.00          0.1667          0.4345 
        2100.00          0.1687          0.4324 
        2150.00          0.1795          0.4315 
        2200.00          0.2133          0.4105 
        2250.00          0.1873          0.4325 
        2300.00          0.1766          0.4382 
        2350.00          0.1573          0.4465 
        2400.00          0.2007          0.4236 
        2450.00          0.1895          0.4259 
        2500.00          0.1686          0.4287 
        2550.00          0.1907          0.4153 
        2600.00          0.2011          0.4069 
        2650.00          0.2003          0.4231 
        2700.00          0.1657          0.4391 
        2750.00          0.2053          0.4154 
        2800.00          0.1975          0.4213 
        2850.00          0.1617          0.4365 
        2900.00          0.1869          0.4402 
        2950.00          0.1943          0.4474 
        3000.00          0.2389          0.4306 
        3050.00          0.2408          0.4282 
        3100.00          0.2123          0.4381 
        3150.00          0.2513          0.3995 
        3200.00          0.2465          0.4145 
        3250.00          0.2245          0.4286 
        3300.00          0.2325          0.4240 
        3350.00          0.1972          0.4404 
        3400.00          0.2197          0.4278 
        3450.00          0.2216          0.4266 
        3500.00          0.2928          0.3824 
        3550.00          0.2861          0.3756 
        3600.00          0.2707          0.3894 
        3650.00          0.2687          0.3909 
        3700.00          0.2890          0.3661 
        3750.00          0.2585          0.3898 
        3800.00          0.2654          0.3942 
        3850.00          0.2976          0.3728 
        3900.00          0.2579          0.4005 
        3950.00          0.2913          0.3773 
        4000.00          0.2672          0.3862 
        4050.00          0.2963          0.3774 
        4100.00          0.2802          0.3901 
        4150.00          0.2589          0.3972 
        4200.00          0.2602          0.3997 
        4250.00          0.2745          0.3795 
        4300.00          0.2911          0.3840 
        4350.00          0.2678          0.4000 
        4400.00          0.2517          0.4000 
        4450.00          0.2845          0.3867 
        4500.00          0.2371          0.4115 
        4550.00          0.1721          0.4713 
        4600.00          0.2413          0.4301 
        4650.00          0.2430          0.4052 
        4700.00          0.2969          0.3893 
        4750.00          0.2355          0.4165 
        4800.00          0.1937          0.4307 
        4850.00          0.1883          0.4339 
        4900.00          0.1975          0.4658 
        4950.00          0.1635          0.4677 
        5000.00          0.1655          0.4778 
        5050.00          0.1498          0.4334 
        5100.00          0.2069          0.4646 
        5150.00          0.1418          0.4667 
        5200.00          0.2266          0.4527 
        5250.00          0.2325          0.4118 
        5300.00          0.2787          0.4623 
        5350.00          0.2727          0.4859 
        5400.00          0.2686          0.4373 
        5450.00          0.2535          0.4753 
        5500.00          0.2430          0.4702 
        5550.00          0.2447          0.4887 
        5600.00          0.2367          0.4660 
        5650.00          0.2575          0.4752 
        5700.00          0.2554          0.4033 
        5750.00          0.2615          0.4534 
        5800.00          0.2783          0.4345 
        5850.00          0.3252          0.3915 
        5900.00          0.3027          0.4216 
        5950.00          0.2791          0.3989 
        6000.00          0.2294          0.4133 
        6050.00          0.2326          0.4051 
        6100.00          0.2572          0.3959 
        6150.00          0.2433          0.3945 
        6200.00          0.2663          0.3976 
        6250.00          0.2970          0.3725 
        6300.00          0.2709          0.3942 
        6350.00          0.2895          0.3753 
        6400.00          0.3138          0.3784 
        6450.00          0.2737          0.3954 
        6500.00          0.2596          0.3859 
        6550.00          0.2684          0.3907 
        6600.00          0.2931          0.3960 
        6650.00          0.2912          0.3800 
        6700.00          0.2783          0.3868 
        6750.00          0.2666          0.3930 
        6800.00          0.2859          0.3853 
        6850.00          0.2651          0.4003 
        6900.00          0.2450          0.3912 
        6950.00          0.2471          0.4036 
        7000.00          0.2530          0.4142 
        7050.00          0.2610          0.3994 
        7100.00          0.2600          0.3929 
        7150.00          0.2443          0.4032 
        7200.00          0.2735          0.3934 
        7250.00          0.2432          0.4242 
        7300.00          0.2748          0.3935 
        7350.00          0.2843          0.3811 
        7400.00          0.2623          0.3806 
        7450.00          0.2837          0.3857 
        7500.00          0.2894          0.3809 
        7550.00          0.2780          0.3918 
        7600.00          0.2362          0.3977 
        7650.00          0.2555          0.4080 
        7700.00          0.2094          0.4248 
        7750.00          0.2566          0.3927 
        7800.00          0.2835          0.3902 
        7850.00          0.2430          0.3862 
        7900.00          0.1943          0.4335 
        7950.00          0.0674          0.4417 
        8000.00          0.1553          0.4354 
        8050.00          0.1692          0.4507 
        8100.00          0.2274          0.3953 
        8150.00          0.1690          0.4352 
        8200.00          0.2189          0.4008 
        8250.00          0.1889          0.4233 
        8300.00          0.2226          0.4131 
        8350.00          0.2113          0.4079 
        8400.00          0.1999          0.4193 
        8450.00          0.2058          0.4186 
        8500.00          0.2408          0.4003 
        8550.00          0.1776          0.4268 
        8600.00          0.1602          0.4426 
        8650.00          0.1203          0.4674 
        8700.00          0.1112          0.4491 
        8750.00          0.1079          0.4563 
        8800.00          0.0644          0.4381 
        8850.00          0.1571          0.4516 
        8900.00          0.0976          0.4696 
        8950.00          0.1238          0.4634 
        9000.00          0.0751          0.4508 
        9050.00          0.1109          0.4448 
        9100.00          0.0820          0.4509 
        9150.00          0.0559          0.4498 
        9200.00          0.0541          0.4524 
        9250.00          0.0522          0.4488 
        9300.00          0.0612          0.4386 
        9350.00          0.0955          0.4486 
        9400.00          0.0848          0.4346 
        9450.00          0.0967          0.4297 
        9500.00          0.0564          0.4471 
        9550.00          0.0541          0.4456 
        9600.00          0.0411          0.4459 
        9650.00          0.0529          0.4377 
        9700.00          0.0442          0.4517 
        9750.00          0.0740          0.4343 
        9800.00          0.0626          0.4375 
        9850.00          0.1225          0.4326 
        9900.00          0.0954          0.4360 
        9950.00          0.0900          0.4325 
       10000.00          0.0642          0.4470 
       10050.00          0.0388          0.4452 
       10100.00          0.0236          0.4501 
       10150.00          0.0814          0.4421 
       10200.00          0.0860          0.4359 
       10250.00          0.0739          0.4427 
       10300.00          0.0586          0.4437 
       10350.00          0.0604          0.4438 
       10400.00          0.0691          0.4515 
       10450.00          0.0680          0.4384 
       10500.00          0.0745          0.4414 
       10550.00          0.0524          0.4529 
       10600.00          0.0273          0.4484 
       10650.00          0.0215          0.4562 
       10700.00          0.0820          0.4539 
       10750.00          0.0658          0.4488 
       10800.00          0.0583          0.4363 
       10850.00          0.0476          0.4460 
       10900.00          0.0806          0.4439 
       10950.00          0.0565          0.4504 
       11000.00          0.0738          0.4377 
       11050.00          0.0932          0.4438 
       11100.00          0.0776          0.4422 
       11150.00          0.0536          0.4354 
       11200.00          0.0884          0.4502 
       11250.00          0.0877          0.4309 
       11300.00          0.0735          0.4318 
       11350.00          0.0918          0.4361 
       11400.00          0.0476          0.4414 
       11450.00          0.0735          0.4420 
       11500.00          0.0856          0.4482 
       11550.00          0.0710          0.4389 
       11600.00          0.0683          0.4455 
       11650.00          0.0503          0.4367 
       11700.00          0.0625          0.4451 
       11750.00          0.0921          0.4346 
       11800.00          0.0686          0.4327 
       11850.00          0.0893          0.4476 
       11900.00          0.0982          0.4311 
       11950.00          0.1266          0.4243 
       12000.00          0.1011          0.4354 
       12050.00          0.0541          0.4436 
       12100.00          0.0693          0.4362 
       12150.00          0.0244          0.4471 
       12200.00          0.0253          0.4511 
       12250.00          0.0742          0.4506 
       12300.00          0.0957          0.4370 
       12350.00          0.0696          0.4444 
       12400.00          0.1016          0.4315 
       12450.00          0.1132          0.4292 
       12500.00          0.0553          0.4376 
       12550.00          0.0743          0.4389 
       12600.00          0.0593          0.4427 
       12650.00          0.0478          0.4409 
       12700.00          0.0502          0.4562 
       12750.00          0.0369          0.4422 
       12800.00          0.0640          0.4474 
       12850.00          0.0711          0.4550 
       12900.00          0.0589          0.4439 
       12950.00          0.0906          0.4410 
       13000.00          0.0825          0.4280 
       13050.00          0.0836          0.4394 
       13100.00          0.0408          0.4557 
       13150.00          0.0540          0.4522 
       13200.00          0.0381          0.4448 
       13250.00          0.0609          0.4321 
       13300.00          0.0302          0.4448 
       13350.00          0.0548          0.4461 
       13400.00          0.0545          0.4397 
       13450.00          0.0592          0.4438 
       13500.00          0.0432          0.4454 
       13550.00          0.0492          0.4421 
       13600.00          0.0459          0.4541 
       13650.00          0.0333          0.4549 
       13700.00          0.0797          0.4318 
       13750.00          0.0412          0.4473 
       13800.00          0.0415          0.4523 
       13850.00          0.0392          0.4477 
       13900.00          0.0680          0.4401 
       13950.00          0.0448          0.4492 
       14000.00          0.0450          0.4475 
       14050.00          0.0578          0.4473 
       14100.00          0.0872          0.4413 
       14150.00          0.0562          0.4513 
       14200.00          0.0781          0.4361 
       14250.00          0.0820          0.4376 
       14300.00          0.0417          0.4358 
       14350.00          0.0659          0.4428 
       14400.00          0.0746          0.4384 
       14450.00          0.0636          0.4413 
       14500.00          0.0454          0.4496 
       14550.00          0.0975          0.4388 
       14600.00          0.1090          0.4413 
       14650.00          0.0909          0.4472 
       14700.00          0.0648          0.4512 
       14750.00          0.0417          0.4498 
       14800.00          0.0464          0.4569 
       14850.00          0.0686          0.4437 
       14900.00          0.1033          0.4360 
       14950.00          0.0788          0.4415 
       15000.00          0.0644          0.4501 
       15050.00          0.0794          0.4414 
       15100.00          0.1015          0.4373 
       15150.00          0.0931          0.4423 
       15200.00          0.0880          0.4459 
       15250.00          0.0754          0.4349 
       15300.00          0.0691          0.4427 
       15350.00          0.0535          0.4448 
       15400.00          0.0605          0.4542 
       15450.00          0.0562          0.4528 
       15500.00          0.0585          0.4419 
       15550.00          0.0589          0.4410 
       15600.00          0.0819          0.4412 
       15650.00          0.0570          0.4473 
       15700.00          0.0460          0.4505 
       15750.00          0.0336          0.4647 
       15800.00          0.0671          0.4426 
       15850.00          0.0990          0.4523 
       15900.00          0.1013          0.4448 
       15950.00          0.0583          0.4443 
       16000.00          0.0250          0.4497 
       16050.00          0.0733          0.4372 
       16100.00          0.0532          0.4426 
       16150.00          0.0769          0.4510 
       16200.00          0.1114          0.4424 
       16250.00          0.0573          0.4333 
       16300.00          0.0450          0.4431 
       16350.00          0.0437          0.4507 
       16400.00          0.0544          0.4451 
       16450.00          0.0667          0.4368 
       16500.00          0.0719          0.4517 
       16550.00          0.0655          0.4506 
       16600.00          0.0642          0.4434 
       16650.00          0.0743          0.4413 
       16700.00          0.0501          0.4497 
       16750.00          0.0678          0.4372 
       16800.00          0.0989          0.4402 
       16850.00          0.0925          0.4258 
       16900.00          0.0554          0.4394 
       16950.00          0.0750          0.4363 
       17000.00          0.0812          0.4376 
       17050.00          0.0558          0.4451 
       17100.00          0.0922          0.4370 
       17150.00          0.0430          0.4521 
       17200.00          0.0716          0.4456 
       17250.00          0.0340          0.4501 
       17300.00          0.0658          0.4522 
       17350.00          0.0757          0.4335 
       17400.00          0.0526          0.4379 
       17450.00          0.0723          0.4270 
       17500.00          0.0687          0.4481 
       17550.00          0.0341          0.4430 
       17600.00          0.0659          0.4394 
       17650.00          0.0610          0.4467 
       17700.00          0.0756          0.4349 
       17750.00          0.0653          0.4407 
       17800.00          0.0588          0.4475 
       17850.00          0.0623          0.4371 
       17900.00          0.0686          0.4408 
       17950.00          0.0663          0.4391 
       18000.00          0.0575          0.4455 
       18050.00          0.0400          0.4553 
       18100.00          0.0747          0.4403 
       18150.00          0.0609          0.4522 
       18200.00          0.0473          0.4491 
       18250.00          0.0280          0.4475 
       18300.00          0.0545          0.4493 
       18350.00          0.0675          0.4389 
       18400.00          0.0695          0.4539 
       18450.00          0.1320          0.4285 
       18500.00          0.0586          0.4418 
       18550.00          0.0398          0.4522 
       18600.00          0.0711          0.4440 
       18650.00          0.0596          0.4423 
       18700.00          0.0568          0.4511 
       18750.00          0.0638          0.4341 
       18800.00          0.1024          0.4439 
       18850.00          0.1001          0.4362 
       18900.00          0.0735          0.4396 
       18950.00          0.0820          0.4413 
       19000.00          0.0469          0.4521 
       19050.00          0.0760          0.4420 
       19100.00          0.0573          0.4344 
       19150.00          0.0701          0.4363 
       19200.00          0.0603          0.4439 
       19250.00          0.1023          0.4362 
       19300.00          0.0758          0.4498 
       19350.00          0.0821          0.4313 
       19400.00          0.0674          0.4384 
       19450.00          0.0606          0.4430 
       19500.00          0.0375          0.4484 
       19550.00          0.0515          0.4537 
       19600.00          0.0819          0.4263 
       19650.00          0.0791          0.4279 
       19700.00          0.0736          0.4439 
       19750.00          0.0353          0.4456 
       19800.00          0.0530          0.4528 
       19850.00          0.0500          0.4435 
       19900.00          0.0747          0.4381 
       19950.00          0.0522          0.4507 
       20000.00          0.0305          0.4469 
       20050.00          0.0539          0.4552 
       20100.00          0.0296          0.4488 
       20150.00          0.0571          0.4312 
       20200.00          0.0636          0.4548 
       20250.00          0.0627          0.4443 
       20300.00          0.0357          0.4433 
       20350.00          0.0664          0.4338 
       20400.00          0.1190          0.4286 
       20450.00          0.1111          0.4288 
       20500.00          0.0770          0.4481 
       20550.00          0.0488          0.4427 
       20600.00          0.0645          0.4343 
       20650.00          0.0887          0.4396 
       20700.00          0.0859          0.4369 
       20750.00          0.0838          0.4391 
       20800.00          0.0333          0.4501 
       20850.00          0.0240          0.4454 
       20900.00          0.0325          0.4507 
       20950.00          0.0287          0.4553 
       21000.00          0.0748          0.4368 
       21050.00          0.0662          0.4324 
       21100.00          0.0778          0.4395 
       21150.00          0.0846          0.4510 
       21200.00          0.0725          0.4486 
       21250.00          0.0710          0.4552 
       21300.00          0.0838          0.4478 
       21350.00          0.0648          0.4407 
       21400.00          0.0583          0.4334 
       21450.00          0.0875          0.4278 
       21500.00          0.0307          0.4495 
       21550.00          0.0430          0.4573 
       21600.00          0.0731          0.4305 
       21650.00          0.0431          0.4509 
       21700.00          0.0425          0.4599 
       21750.00          0.0621          0.4567 
       21800.00          0.0497          0.4494 
       21850.00          0.0635          0.4366 
       21900.00          0.0668          0.4534 
       21950.00          0.0833          0.4508 
       22000.00          0.0499          0.4459 
       22050.00          0.0468          0.4593 
       22100.00          0.0799          0.4431 
       22150.00          0.0815          0.4397 
       22200.00          0.0692          0.4418 
       22250.00          0.0640          0.4398 
       22300.00          0.0534          0.4458 
       22350.00          0.0900          0.4358 
       22400.00          0.0670          0.4432 
       22450.00          0.0596          0.4429 
       22500.00          0.1201          0.4349 
       22550.00          0.1000          0.4350 
       22600.00          0.0604          0.4364 
       22650.00          0.0525          0.4462 
       22700.00          0.0756          0.4394 
       22750.00          0.0626          0.4351 
       22800.00          0.0587          0.4320 
       22850.00          0.0840          0.4348 
       22900.00          0.0390          0.4414 
       22950.00          0.0563          0.4526 
       23000.00          0.0754          0.4437 
       23050.00          0.0606          0.4353 
       23100.00          0.0662          0.4348 
       23150.00          0.0693          0.4452 
       23200.00          0.0347          0.4477 
       23250.00          0.0837          0.4459 
       23300.00          0.0519          0.4436 
       23350.00          0.1336          0.4334 
       23400.00          0.1078          0.4521 
       23450.00          0.0606          0.4374 
       23500.00          0.0813          0.4323 
       23550.00          0.0626          0.4417 
       23600.00          0.0729          0.4335 
       23650.00          0.0838          0.4501 
       23700.00          0.0524          0.4553 
       23750.00          0.0737          0.4611 
       23800.00          0.0658          0.4431 
       23850.00          0.0781          0.4470 
       23900.00          0.0555          0.4375 
       23950.00          0.0557          0.4502 
       24000.00          0.0791          0.4422 
       24050.00          0.0650          0.4466 
       24100.00          0.0370          0.4442 
       24150.00          0.0865          0.4380 
       24200.00          0.0689          0.4493 
       24250.00          0.0602          0.4392 
       24300.00          0.0593          0.4347 
       24350.00          0.0662          0.4560 
       24400.00          0.0597          0.4497 
       24450.00          0.0749          0.4332 
       24500.00          0.0451          0.4456 
       24550.00          0.0873          0.4334 
       24600.00          0.0631          0.4450 
       24650.00          0.0503          0.4491 
       24700.00          0.0382          0.4427 
       24750.00          0.0729          0.4383 
       24800.00          0.0474          0.4503 
       24850.00          0.0804          0.4431 
       24900.00          0.0795          0.4405 
       24950.00          0.1015          0.4454 
       25000.00          0.0824          0.4418 
       25050.00          0.1064          0.4231 
       25100.00          0.0937          0.4295 
       25150.00          0.0650          0.4388 
       25200.00          0.0811          0.4474 
       25250.00          0.0625          0.4451 
       25300.00          0.0788          0.4616 
       25350.00          0.0379          0.4499 
       25400.00          0.0607          0.4368 
       25450.00          0.0813          0.4539 
       25500.00          0.0882          0.4360 
       25550.00          0.0764          0.4404 
       25600.00          0.0489          0.4557 
       25650.00          0.0347          0.4426 
       25700.00          0.0895          0.4369 
       25750.00          0.1030          0.4198 
       25800.00          0.0862          0.4257 
       25850.00          0.0722          0.4498 
       25900.00          0.0702          0.4467 
       25950.00          0.0834          0.4509 
       26000.00          0.0620          0.4433 
       26050.00          0.0759          0.4423 
       26100.00          0.0591          0.4392 
       26150.00          0.0628          0.4569 
       26200.00          0.0834          0.4242 
       26250.00          0.1281          0.4310 
       26300.00          0.0488          0.4524 
       26350.00          0.0724          0.4369 
       26400.00          0.0504          0.4384 
       26450.00          0.0273          0.4483 
       26500.00          0.0714          0.4466 
       26550.00          0.0532          0.4543 
       26600.00          0.1111          0.4352 
       26650.00          0.0669          0.4451 
       26700.00          0.0581          0.4476 
       26750.00          0.0718          0.4294 
       26800.00          0.0758          0.4508 
       26850.00          0.1320          0.4526 
       26900.00          0.1216          0.4659 
       26950.00          0.1411          0.4437 
       27000.00          0.1385          0.4278 
       27050.00          0.1401          0.4500 
       27100.00          0.2032          0.4163 
       27150.00          0.1725          0.4153 
       27200.00          0.1275          0.4358 
       27250.00          0.1990          0.4165 
       27300.00          0.2298          0.4022 
       27350.00          0.2458          0.4065 
       27400.00          0.2621          0.3931 
       27450.00          0.2508          0.3962 
       27500.00          0.2487          0.3850 
       27550.00          0.2003          0.4225 
       27600.00          0.1899          0.4239 
       27650.00          0.1850          0.4092 
       27700.00          0.1465          0.4396 
       27750.00          0.1305          0.4361 
       27800.00          0.1464          0.4331 
       27850.00          0.1638          0.4159 
       27900.00          0.1449          0.4435 
       27950.00          0.1876          0.4137 
       28000.00          0.1482          0.4374 
       28050.00          0.1335          0.4301 
       28100.00          0.0987          0.4615 
       28150.00          0.1068          0.4455 
       28200.00          0.0831          0.4784 
       28250.00          0.1849          0.4302 
       28300.00          0.1258          0.4604 
       28350.00          0.1478          0.4339 
       28400.00          0.1749          0.3977 
       28450.00          0.1776          0.4073 
       28500.00          0.1244          0.4384 
       28550.00          0.0577          0.4681 
       28600.00          0.0732          0.4611 
       28650.00          0.0790          0.4536 
       28700.00          0.0819          0.4459 
       28750.00          0.1048          0.4556 
       28800.00          0.0733          0.4413 
       28850.00          0.0666          0.4500 
       28900.00          0.0740          0.4442 
       28950.00          0.0517          0.4473 
       29000.00          0.0640          0.4358 
       29050.00          0.0612          0.4440 
       29100.00          0.0563          0.4433 
       29150.00          0.0824          0.4373 
       29200.00          0.0655          0.4332 
       29250.00          0.0672          0.4487 
       29300.00          0.0635          0.4433 
       29350.00          0.0711          0.4503 
       29400.00          0.1248          0.4302 
       29450.00          0.0776          0.4434 
       29500.00          0.0556          0.4442 
       29550.00          0.0796          0.4393 
       29600.00          0.0798          0.4269 
       29650.00          0.0570          0.4338 
       29700.00          0.0854          0.4356 
       29750.00          0.0586          0.4533 
       29800.00          0.0788          0.4369 
       29850.00          0.0443          0.4533 
       29900.00          0.0774          0.4520 
       29950.00          0.1015          0.4385 
       30000.00          0.0781          0.4417 
       30050.00          0.0775          0.4463 
       30100.00          0.0815          0.4388 
       30150.00          0.0714          0.4365 
       30200.00          0.0816          0.4480 
       30250.00          0.0675          0.4437 
       30300.00          0.0556          0.4499 
       30350.00          0.0870          0.4361 
       30400.00          0.0597          0.4390 
       30450.00          0.0855          0.4535 
       30500.00          0.0967          0.4370 
       30550.00          0.0815          0.4347 
       30600.00          0.0874          0.4431 
       30650.00          0.0585          0.4437 
       30700.00          0.0657          0.4437 
       30750.00          0.0963          0.4433 
       30800.00          0.0687          0.4544 
       30850.00          0.0843          0.4502 
       30900.00          0.0724          0.4556 
       30950.00          0.0594          0.4455 
       31000.00          0.0778          0.4466 
       31050.00          0.0670          0.4345 
       31100.00          0.0543          0.4378 
       31150.00          0.0791          0.4417 
       31200.00          0.0224          0.4523 
       31250.00          0.0583          0.4412 
       31300.00          0.0467          0.4450 
       31350.00          0.0671          0.4439 
       31400.00          0.0859          0.4497 
       31450.00          0.0591          0.4561 
       31500.00          0.0528          0.4357 
       31550.00          0.0579          0.4441 
       31600.00          0.0756          0.4330 
       31650.00          0.0815          0.4370 
       31700.00          0.0845          0.4472 
       31750.00          0.0753          0.4621 
       31800.00          0.0711          0.4525 
       31850.00          0.0848          0.4383 
       31900.00          0.0967          0.4372 
       31950.00          0.0797          0.4397 
       32000.00          0.0848          0.4367 
       32050.00          0.0860          0.4456 
       32100.00          0.1098          0.4238 
       32150.00          0.0910          0.4478 
       32200.00          0.0690          0.4528 
       32250.00          0.0479          0.4439 
       32300.00          0.1342          0.4167 
       32350.00          0.1030          0.4308 
       32400.00          0.0597          0.4439 
       32450.00          0.0741          0.4446 
       32500.00          0.0679          0.4543 
       32550.00          0.0721          0.4355 
       32600.00          0.0337          0.4451 
       32650.00          0.0868          0.4429 
       32700.00          0.1063          0.4268 
       32750.00          0.0631          0.4434 
       32800.00          0.0773          0.4389 
       32850.00          0.0509          0.4448 
       32900.00          0.0763          0.4379 
       32950.00          0.0718          0.4470 
       33000.00          0.0819          0.4386 
       33050.00          0.1036          0.4404 
       33100.00          0.0763          0.4592 
       33150.00          0.0603          0.4489 
       33200.00          0.0507          0.4533 
       33250.00          0.0353          0.4479 
       33300.00          0.0839          0.4507 
       33350.00          0.0573          0.4607 
       33400.00          0.1104          0.4374 
       33450.00          0.1268          0.4192 
       33500.00          0.0792          0.4488 
       33550.00          0.0621          0.4437 
       33600.00          0.0781          0.4384 
       33650.00          0.0764          0.4389 
       33700.00          0.0557          0.4482 
       33750.00          0.0596          0.4444 
       33800.00          0.0508          0.4508 
       33850.00          0.0819          0.4390 
       33900.00          0.0631          0.4376 
       33950.00          0.0620          0.4429 
       34000.00          0.0507          0.4516 
       34050.00          0.0517          0.4496 
       34100.00          0.0515          0.4553 
       34150.00          0.0629          0.4669 
       34200.00          0.0759          0.4612 
       34250.00          0.1232          0.4619 
       34300.00          0.2290          0.4038 
       34350.00          0.2013          0.4203 
       34400.00          0.1921          0.4229 
       34450.00          0.1971          0.4351 
       34500.00          0.2023          0.4378 
       34550.00          0.1963          0.4304 
       34600.00          0.1787          0.4385 
       34650.00          0.1889          0.4167 
       34700.00          0.2333          0.4000 
       34750.00          0.2077          0.4235 
       34800.00          0.2037          0.4128 
       34850.00          0.2343          0.4030 
       34900.00          0.2275          0.4046 
       34950.00          0.1701          0.4307 
       35000.00          0.1957          0.4175 
       35050.00          0.1823          0.4332 
       35100.00          0.1952          0.4062 
       35150.00          0.2150          0.3930 
       35200.00          0.2231          0.4090 
       35250.00          0.1889          0.4196 
       35300.00          0.1548          0.4397 
       35350.00          0.2079          0.4147 
       35400.00          0.2213          0.4096 
       35450.00          0.2198          0.3914 
       35500.00          0.2146          0.4026 
       35550.00          0.2589          0.3856 
       35600.00          0.2035          0.4199 
       35650.00          0.1798          0.4253 
       35700.00          0.1690          0.4442 
       35750.00          0.1909          0.4038 
       35800.00          0.2679          0.3741 
       35850.00          0.2321          0.4100 
       35900.00          0.1882          0.4137 
       35950.00          0.1347          0.4455 
       36000.00          0.1620          0.4308 
       36050.00          0.1255          0.4254 
       36100.00          0.0905          0.4406 
       36150.00          0.1275          0.4370 
       36200.00          0.1114          0.4433 
       36250.00          0.1087          0.4521 
       36300.00          0.0909          0.4490 
       36350.00          0.0995          0.4372 
       36400.00          0.1351          0.4396 
       36450.00          0.0919          0.4687 
       36500.00          0.1044          0.4684 
       36550.00          0.1460          0.4561 
       36600.00          0.1421          0.4364 
       36650.00          0.1327          0.4551 
       36700.00          0.0956          0.4799 
       36750.00          0.0981          0.4510 
       36800.00          0.1561          0.4505 
       36850.00          0.1783          0.4223 
       36900.00          0.1272          0.4662 
       36950.00          0.1164          0.4413 
       37000.00          0.0886          0.4607 
       37050.00          0.0751          0.4561 
       37100.00          0.1840          0.4175 
       37150.00          0.1607          0.4379 
       37200.00          0.1571          0.4437 
       37250.00          0.1863          0.4363 
       37300.00          0.1560          0.4263 
       37350.00          0.1462          0.4416 
       37400.00          0.1205          0.4605 
       37450.00          0.0999          0.4747 
       37500.00          0.1265          0.4460 
       37550.00          0.1657          0.4297 
       37600.00          0.1159          0.4296 
       37650.00          0.1237          0.4275 
       37700.00          0.0723          0.4271 
       37750.00          0.0469          0.4521 
       37800.00          0.0680          0.4417 
       37850.00          0.0327          0.4465 
       37900.00          0.0313          0.4525 
       37950.00          0.0337          0.4565 
       38000.00          0.0452          0.4475 
       38050.00          0.0459          0.4525 
       38100.00          0.0847          0.4325 
       38150.00          0.0667          0.4413 
       38200.00          0.0568          0.4499 
       38250.00          0.0345          0.4461 
       38300.00          0.0831          0.4353 
       38350.00          0.0790          0.4489 
       38400.00          0.1042          0.4325 
       38450.00          0.0768          0.4512 
       38500.00          0.1128          0.4281 
       38550.00          0.1007          0.4302 
       38600.00          0.0214          0.4500 
       38650.00          0.0781          0.4329 
       38700.00          0.0781          0.4504 
       38750.00          0.0565          0.4404 
       38800.00          0.0682          0.4450 
       38850.00          0.1082          0.4275 
       38900.00          0.0583          0.4535 
       38950.00          0.0766          0.4584 
       39000.00          0.0534          0.4365 
       39050.00          0.0512          0.4553 
       39100.00          0.0852          0.4496 
       39150.00          0.0628          0.4383 
       39200.00          0.0747          0.4524 
       39250.00          0.0531          0.4549 
       39300.00          0.0814          0.4389 
       39350.00          0.1631          0.4062 
       39400.00          0.1282          0.4219 
       39450.00          0.0635          0.4468 
       39500.00          0.1113          0.4286 
       39550.00          0.0609          0.4481 
       39600.00          0.1210          0.4239 
       39650.00          0.1106          0.4398 
       39700.00          0.0746          0.4374 
       39750.00          0.0581          0.4496 
       39800.00          0.0550          0.4442 
       39850.00          0.0657          0.4449 
       39900.00          0.0711          0.4591 
       39950.00          0.0627          0.4473 
       40000.00          0.0650          0.4401 
       40050.00          0.0555          0.4497 
       40100.00          0.0445          0.4546 
       40150.00          0.0861          0.4515 
       40200.00          0.0893          0.4349 
       40250.00          0.0345          0.4541 
       40300.00          0.0360          0.4532 
       40350.00          0.0587          0.4530 
       40400.00          0.0535          0.4311 
       40450.00          0.0683          0.4392 
       40500.00          0.1455          0.4072 
       40550.00          0.0787          0.4376 
       40600.00          0.0737          0.4396 
       40650.00          0.0636          0.4406 
       40700.00          0.0509          0.4494 
       40750.00          0.0776          0.4453 
       40800.00          0.0705          0.4384 
       40850.00          0.0452          0.4483 
       40900.00          0.0641          0.4376 
       40950.00          0.0648          0.4523 
       41000.00          0.0450          0.4434 
       41050.00          0.0360          0.4494 
       41100.00          0.0273          0.4444 
       41150.00          0.0687          0.4513 
       41200.00          0.0293          0.4523 
       41250.00          0.0311          0.4520 
       41300.00          0.0807          0.4381 
       41350.00          0.0950          0.4354 
       41400.00          0.0920          0.4295 
       41450.00          0.0679          0.4379 
       41500.00          0.0547          0.4446 
       41550.00          0.0627          0.4410 
       41600.00          0.0952          0.4311 
       41650.00          0.1322          0.4164 
       41700.00          0.1109          0.4348 
       41750.00          0.0560          0.4288 
       41800.00          0.0499          0.4436 
       41850.00          0.0644          0.4469 
       41900.00          0.0597          0.4497 
       41950.00          0.0594          0.4558 
       42000.00          0.0677          0.4391 
       42050.00          0.0741          0.4376 
       42100.00          0.0625          0.4380 
       42150.00          0.0705          0.4391 
       42200.00          0.0696          0.4377 
       42250.00          0.0892          0.4437 
       42300.00          0.1089          0.4290 
       42350.00          0.0918          0.4414 
       42400.00          0.0682          0.4354 
       42450.00          0.0916          0.4389 
       42500.00          0.0835          0.4393 
       42550.00          0.0849          0.4329 
       42600.00          0.0643          0.4347 
       42650.00          0.1209          0.4308 
       42700.00          0.0775          0.4568 
       42750.00          0.0684          0.4487 
       42800.00          0.0876          0.4283 
       42850.00          0.0972          0.4333 
       42900.00          0.0798          0.4400 
       42950.00          0.0858          0.4436 
       43000.00          0.0596          0.4423 
       43050.00          0.0727          0.4510 
       43100.00          0.0677          0.4362 
       43150.00          0.0277          0.4537 
       43200.00          0.0687          0.4389 
       43250.00          0.0564          0.4424 
       43300.00          0.0436          0.4526 
       43350.00          0.0640          0.4608 
       43400.00          0.0756          0.4477 
       43450.00          0.0278          0.4497 
       43500.00          0.0272          0.4563 
       43550.00          0.0499          0.4464 
       43600.00          0.0799          0.4393 
       43650.00          0.0562          0.4522 
       43700.00          0.0592          0.4436 
       43750.00          0.0404          0.4514 
       43800.00          0.0451          0.4564 
       43850.00          0.0795          0.4356 
       43900.00          0.0449          0.4475 
       43950.00          0.0409          0.4511 
       44000.00          0.0575          0.4504 
       44050.00          0.0492          0.4542 
       44100.00          0.0346          0.4462 
       44150.00          0.0738          0.4404 
       44200.00          0.0913          0.4514 
       44250.00          0.0556          0.4333 
       44300.00          0.0762          0.4404 
       44350.00          0.0478          0.4498 
       44400.00          0.0512          0.4385 
       44450.00          0.0715          0.4544 
       44500.00          0.0636          0.4251 
       44550.00          0.0253          0.4483 
       44600.00          0.0725          0.4517 
       44650.00          0.0821          0.4424 
       44700.00          0.0595          0.4543 
       44750.00          0.0639          0.4529 
       44800.00          0.0565          0.4478 
       44850.00          0.0775          0.4367 
       44900.00          0.0645          0.4437 
       44950.00          0.0614          0.4402 
       45000.00          0.0459          0.4412 
       45050.00          0.0630          0.4373 
       45100.00          0.0723          0.4538 
       45150.00          0.0609          0.4449 
       45200.00          0.0543          0.4501 
       45250.00          0.0614          0.4412 
       45300.00          0.0693          0.4498 
       45350.00          0.0861          0.4465 
       45400.00          0.0421          0.4411 
       45450.00          0.0432          0.4446 
       45500.00          0.0395          0.4456 
       45550.00          0.0820          0.4377 
       45600.00          0.0976          0.4355 
       45650.00          0.0582          0.4373 
       45700.00          0.0598          0.4372 
       45750.00          0.0513          0.4516 
       45800.00          0.0979          0.4330 
       45850.00          0.0526          0.4487 
       45900.00          0.0523          0.4590 
       45950.00          0.0902          0.4318 
       46000.00          0.0562          0.4441 
       46050.00          0.0347          0.4428 
       46100.00          0.0698          0.4433 
       46150.00          0.0965          0.4311 
       46200.00          0.0850          0.4457 
       46250.00          0.0448          0.4551 
       46300.00          0.0614          0.4538 
       46350.00          0.0468          0.4424 
       46400.00          0.0568          0.4383 
       46450.00          0.0495          0.4555 
       46500.00          0.0897          0.4317 
       46550.00          0.0585          0.4473 
       46600.00          0.0848          0.4518 
       46650.00          0.1108          0.4271 
       46700.00          0.0766          0.4350 
       46750.00          0.1346          0.4110 
       46800.00          0.1095          0.4258 
       46850.00          0.0817          0.4567 
       46900.00          0.0717          0.4483 
       46950.00          0.1525          0.4172 
       47000.00          0.0779          0.4477 
       47050.00          0.0588          0.4370 
       47100.00          0.0648          0.4355 
       47150.00          0.0863          0.4345 
       47200.00          0.0709          0.4319 
       47250.00          0.0945          0.4423 
       47300.00          0.0675          0.4541 
       47350.00          0.0678          0.4488 
       47400.00          0.0755          0.4438 
       47450.00          0.0509          0.4383 
       47500.00          0.0724          0.4525 
       47550.00          0.0540          0.4609 
       47600.00          0.0965          0.4418 
       47650.00          0.0463          0.4474 
       47700.00          0.0762          0.4499 
       47750.00          0.1033          0.4338 
       47800.00          0.0752          0.4559 
       47850.00          0.0564          0.4495 
       47900.00          0.0689          0.4523 
       47950.00          0.0988          0.4347 
       48000.00          0.0744          0.4349 
       48050.00          0.0613          0.4353 
       48100.00          0.0251          0.4566 
       48150.00          0.0680          0.4445 
       48200.00          0.1210          0.4291 
       48250.00          0.1107          0.4172 
       48300.00          0.1504          0.4144 
       48350.00          0.1545          0.4086 
       48400.00          0.0602          0.4498 
       48450.00          0.0675          0.4456 
       48500.00          0.1059          0.4281 
       48550.00          0.0935          0.4492 
       48600.00          0.0632          0.4492 
       48650.00          0.0489          0.4370 
       48700.00          0.1127          0.4302 
       48750.00          0.1461          0.4201 
       48800.00          0.0477          0.4389 
       48850.00          0.0598          0.4412 
       48900.00          0.0774          0.4411 
       48950.00          0.0628          0.4293 
       49000.00          0.0787          0.4317 
       49050.00          0.0600          0.4496 
       49100.00          0.0541          0.4454 
       49150.00          0.0648          0.4432 
       49200.00          0.0765          0.4497 
       49250.00          0.1315          0.4124 
       49300.00          0.0613          0.4570 
       49350.00          0.0534          0.4402 
       49400.00          0.0699          0.4335 
       49450.00          0.0670          0.4614 
       49500.00          0.0945          0.4353 
       49550.00          0.0664          0.4403 
       49600.00          0.0596          0.4488 
       49650.00          0.0673          0.4342 
       49700.00          0.0543          0.4446 
       49750.00          0.0598          0.4485 
       49800.00          0.0899          0.4445 
       49850.00          0.0589          0.4449 
       49900.00          0.0729          0.4359 
       49950.00          0.0570          0.4532 
       50000.00          0.0590          0.4479 
       50050.00          0.0863          0.4393 
       50100.00          0.0582          0.4448 
       50150.00          0.0840          0.4391 
       50200.00          0.0620          0.4370 
       50250.00          0.0322          0.4494 
       50300.00          0.0288          0.4556 
       50350.00          0.1042          0.4638 
       50400.00          0.1430          0.4335 
       50450.00          0.1931          0.4306 
       50500.00          0.1870          0.4226 
       50550.00          0.2151          0.4060 
       50600.00          0.2263          0.3965 
       50650.00          0.2190          0.4078 
       50700.00          0.1860          0.4300 
       50750.00          0.1837          0.4276 
       50800.00          0.1849          0.4229 
       50850.00          0.2017          0.4118 
       50900.00          0.1875          0.4191 
       50950.00          0.2134          0.4205 
       51000.00          0.1877          0.4184 
       51050.00          0.2171          0.4040 
       51100.00          0.1885          0.4198 
       51150.00          0.1525          0.4397 
       51200.00          0.1834          0.4309 
       51250.00          0.1820          0.4252 
       51300.00          0.1898          0.4209 
       51350.00          0.1910          0.4317 
       51400.00          0.1895          0.4284 
       51450.00          0.2216          0.4009 
       51500.00          0.1949          0.4298 
       51550.00          0.1755          0.4246 
       51600.00          0.2149          0.4163 
       51650.00          0.1895          0.4112 
       51700.00          0.2004          0.4260 
       51750.00          0.1934          0.4214 
       51800.00          0.1760          0.4146 
       51850.00          0.2344          0.4082 
       51900.00          0.1873          0.4198 
       51950.00          0.2021          0.4148 
       52000.00          0.1861          0.4208 
       52050.00          0.1854          0.4293 
       52100.00          0.1935          0.4212 
       52150.00          0.2218          0.4011 
       52200.00          0.2425          0.3906 
       52250.00          0.1799          0.4286 
       52300.00          0.1867          0.4251 
       52350.00          0.1882          0.4202 
       52400.00          0.1853          0.4236 
       52450.00          0.1823          0.4298 
       52500.00          0.1255          0.4629 
       52550.00          0.1107          0.4573 
       52600.00          0.0908          0.4532 
       52650.00          0.0767          0.4419 
       52700.00          0.1183          0.4631 
       52750.00          0.1859          0.4267 
       52800.00          0.1789          0.4168 
       52850.00          0.2064          0.4211 
       52900.00          0.2164          0.4038 
       52950.00          0.1970          0.4199 
       53000.00          0.2064          0.4196 
       53050.00          0.1911          0.4304 
       53100.00          0.2546          0.3735 
       53150.00          0.2267          0.4042 
       53200.00          0.2144          0.4034 
       53250.00          0.2209          0.3978 
       53300.00          0.1867          0.4345 
       53350.00          0.1833          0.4302 
       53400.00          0.1832          0.4294 
       53450.00          0.1994          0.4116 
       53500.00          0.1609          0.4229 
       53550.00          0.2059          0.4123 
       53600.00          0.1712          0.4307 
       53650.00          0.1925          0.4206 
       53700.00          0.1924          0.4213 
       53750.00          0.1890          0.4166 
       53800.00          0.1846          0.4280 
       53850.00          0.1529          0.4239 
       53900.00          0.1747          0.4276 
       53950.00          0.1847          0.4215 
       54000.00          0.1625          0.4281 
       54050.00          0.2003          0.4219 
       54100.00          0.1515          0.4596 
       54150.00          0.1795          0.4404 
       54200.00          0.2275          0.3973 
       54250.00          0.2098          0.4166 
       54300.00          0.2264          0.4063 
       54350.00          0.2204          0.4011 
       54400.00          0.2325          0.4037 
       54450.00          0.1434          0.4593 
       54500.00          0.1572          0.4468 
       54550.00          0.1814          0.4306 
       54600.00          0.1827          0.4417 
       54650.00          0.1900          0.4252 
       54700.00          0.2228          0.4053 
       54750.00          0.2117          0.4076 
       54800.00          0.1976          0.4228 
       54850.00          0.1402          0.4488 
       54900.00          0.1459          0.4323 
       54950.00          0.1581          0.4376 
       55000.00          0.0706          0.4587 
       55050.00          0.0871          0.4271 
       55100.00          0.0942          0.4351 
       55150.00          0.0702          0.4452 
       55200.00          0.0293          0.4436 
       55250.00          0.0313          0.4436 
       55300.00          0.0619          0.4435 
       55350.00          0.0586          0.4417 
       55400.00          0.0984          0.4479 
       55450.00          0.0517          0.4393 
       55500.00          0.0604          0.4435 
       55550.00          0.0460          0.4513 
       55600.00          0.0342          0.4451 
       55650.00          0.0324          0.4426 
       55700.00          0.0332          0.4421 
       55750.00          0.0432          0.4567 
       55800.00          0.0262          0.4562 
       55850.00          0.0582          0.4485 
       55900.00          0.0356          0.4573 
       55950.00          0.0494          0.4452 
       56000.00          0.0868          0.4412 
       56050.00          0.0336          0.4551 
       56100.00          0.0767          0.4467 
       56150.00          0.0538          0.4412 
       56200.00          0.0340          0.4406 
       56250.00          0.0439          0.4530 
       56300.00          0.0979          0.4522 
       56350.00          0.0644          0.4405 
       56400.00          0.0737          0.4378 
       56450.00          0.0857          0.4387 
       56500.00          0.0690          0.4411 
       56550.00          0.1150          0.4267 
       56600.00          0.0587          0.4427 
       56650.00          0.0682          0.4361 
       56700.00          0.0421          0.4524 
       56750.00          0.0608          0.4436 
       56800.00          0.0647          0.4434 
       56850.00          0.0580          0.4518 
       56900.00          0.0759          0.4503 
       56950.00          0.0596          0.4406 
       57000.00          0.0566          0.4410 
       57050.00          0.0665          0.4368 
       57100.00          0.0870          0.4488 
       57150.00          0.0653          0.4254 
       57200.00          0.0675          0.4368 
       57250.00          0.1062          0.4392 
       57300.00          0.1564          0.4174 
       57350.00          0.1501          0.4222 
       57400.00          0.1614          0.4438 
       57450.00          0.1300          0.4333 
       57500.00          0.1146          0.4605 
       57550.00          0.1108          0.4643 
       57600.00          0.0841          0.4624 
       57650.00          0.1233          0.4660 
       57700.00          0.1123          0.4563 
       57750.00          0.0922          0.4510 
       57800.00          0.0794          0.4567 
       57850.00          0.0794          0.4642 
       57900.00          0.1055          0.4722 
       57950.00          0.1747          0.4031 
       58000.00          0.1511          0.4402 
       58050.00          0.1716          0.4408 
       58100.00          0.1740          0.4321 
       58150.00          0.1500          0.4506 
       58200.00          0.1040          0.4683 
       58250.00          0.1176          0.4661 
       58300.00          0.1628          0.4319 
       58350.00          0.1525          0.4486 
       58400.00          0.1579          0.4360 
       58450.00          0.1412          0.4445 
       58500.00          0.1536          0.4320 
       58550.00          0.1115          0.4703 
       58600.00          0.1025          0.4810 
       58650.00          0.1637          0.4289 
       58700.00          0.1737          0.4368 
       58750.00          0.1344          0.4456 
       58800.00          0.1886          0.4237 
       58850.00          0.1607          0.4275 
       58900.00          0.1290          0.4441 
       58950.00          0.1536          0.4293 
       59000.00          0.1717          0.4163 
       59050.00          0.1605          0.4255 
       59100.00          0.0945          0.4600 
       59150.00          0.1225          0.4337 
       59200.00          0.1248          0.4401 
       59250.00          0.1360          0.4457 
       59300.00          0.1618          0.4515 
       59350.00          0.2120          0.4094 
       59400.00          0.1657          0.4198 
       59450.00          0.1848          0.4051 
       59500.00          0.1228          0.4322 
       59550.00          0.0568          0.4713 
       59600.00          0.1279          0.4486 
       59650.00          0.1323          0.4523 
       59700.00          0.1487          0.4453 
       59750.00          0.1387          0.4454 
       59800.00          0.1388          0.4531 
       59850.00          0.0963          0.4558 
       59900.00          0.1319          0.4549 
       59950.00          0.1333          0.4406 
       60000.00          0.1797          0.4135 
       60050.00          0.2314          0.3842 
       60100.00          0.1658          0.4334 
       60150.00          0.1890          0.4204 
       60200.00          0.1189          0.4466 
       60250.00          0.1090          0.4614 
       60300.00          0.0959          0.4779 
       60350.00          0.1296          0.4485 
       60400.00          0.1315          0.4447 
       60450.00          0.0692          0.4724 
       60500.00          0.1513          0.4406 
       60550.00          0.1526          0.4225 
       60600.00          0.1166          0.4577 
       60650.00          0.2009          0.4059 
       60700.00          0.1603          0.4163 
       60750.00          0.0869          0.4584 
       60800.00          0.1257          0.4257 
       60850.00          0.0680          0.4377 
       60900.00          0.0411          0.4393 
       60950.00          0.0254          0.4433 
       61000.00          0.0858          0.4436 
       61050.00          0.0790          0.4302 
       61100.00          0.0716          0.4356 
       61150.00          0.0827          0.4473 
       61200.00          0.1083          0.4334 
       61250.00          0.1119          0.4367 
       61300.00          0.0974          0.4361 
       61350.00          0.1139          0.4403 
       61400.00          0.0722          0.4510 
       61450.00          0.0590          0.4422 
       61500.00          0.0533          0.4363 
       61550.00          0.0774          0.4369 
       61600.00          0.0693          0.4456 
       61650.00          0.0982          0.4247 
       61700.00          0.0560          0.4612 
       61750.00          0.0768          0.4450 
       61800.00          0.0420          0.4454 
       61850.00          0.0595          0.4477 
       61900.00          0.0945          0.4571 
       61950.00          0.1154          0.4274 
       62000.00          0.0679          0.4576 
       62050.00          0.0627          0.4434 
       62100.00          0.0560          0.4484 
       62150.00          0.0473          0.4390 
       62200.00          0.0905          0.4433 
       62250.00          0.0575          0.4349 
       62300.00          0.0689          0.4461 
       62350.00          0.0507          0.4436 
       62400.00          0.0353          0.4497 
       62450.00          0.0588          0.4532 
       62500.00          0.0769          0.4407 
       62550.00          0.0516          0.4385 
       62600.00          0.0587          0.4422 
       62650.00          0.0477          0.4442 
       62700.00          0.0709          0.4467 
       62750.00          0.0600          0.4417 
       62800.00          0.0785          0.4415 
       62850.00          0.0727          0.4457 
       62900.00          0.0806          0.4381 
       62950.00          0.0800          0.4447 
       63000.00          0.0782          0.4299 
       63050.00          0.1099          0.4479 
       63100.00          0.0756          0.4515 
       63150.00          0.0703          0.4424 
       63200.00          0.0644          0.4464 
       63250.00          0.0673          0.4442 
       63300.00          0.0527          0.4439 
       63350.00          0.0483          0.4572 
       63400.00          0.1029          0.4447 
       63450.00          0.0682          0.4348 
       63500.00          0.1075          0.4361 
       63550.00          0.0546          0.4536 
       63600.00          0.0876          0.4444 
       63650.00          0.0933          0.4446 
       63700.00          0.0349          0.4465 
       63750.00          0.0596          0.4417 
       63800.00          0.1088          0.4233 
       63850.00          0.0612          0.4532 
       63900.00          0.0580          0.4480 
       63950.00          0.0677          0.4454 
       64000.00          0.0327          0.4505 
       64050.00          0.0619          0.4450 
       64100.00          0.0202          0.4480 
       64150.00          0.0436          0.4584 
       64200.00          0.0715          0.4392 
       64250.00          0.0756          0.4512 
       64300.00          0.0845          0.4417 
       64350.00          0.0570          0.4397 
       64400.00          0.0623          0.4403 
       64450.00          0.0401          0.4468 
       64500.00          0.0660          0.4562 
       64550.00          0.0833          0.4367 
       64600.00          0.0917          0.4361 
       64650.00          0.0874          0.4395 
       64700.00          0.0665          0.4392 
       64750.00          0.0537          0.4523 
       64800.00          0.0627          0.4410 
       64850.00          0.0541          0.4478 
       64900.00          0.0705          0.4527 
       64950.00          0.0700          0.4517 
       65000.00          0.0567          0.4400 
       65050.00          0.0623          0.4451 
       65100.00          0.0653          0.4380 
       65150.00          0.0647          0.4443 
       65200.00          0.0833          0.4327 
       65250.00          0.0585          0.4404 
       65300.00          0.0995          0.4465 
       65350.00          0.1151          0.4315 
       65400.00          0.0975          0.4388 
       65450.00          0.1394          0.4224 
       65500.00          0.1203          0.4221 
       65550.00          0.1001          0.4292 
       65600.00          0.0627          0.4397 
       65650.00          0.0769          0.4407 
       65700.00          0.0685          0.4482 
       65750.00          0.1066          0.4329 
       65800.00          0.0578          0.4533 
       65850.00          0.0533          0.4392 
       65900.00          0.0827          0.4505 
       65950.00          0.0841          0.4502 
       66000.00          0.0668          0.4302 
       66050.00          0.0502          0.4430 
       66100.00          0.0697          0.4445 
       66150.00          0.0612          0.4346 
       66200.00          0.0438          0.4552 
       66250.00          0.1127          0.4411 
       66300.00          0.0735          0.4411 
       66350.00          0.0513          0.4421 
       66400.00          0.0558          0.4482 
       66450.00          0.0896          0.4361 
       66500.00          0.0870          0.4451 
       66550.00          0.0912          0.4475 
       66600.00          0.0606          0.4361 
       66650.00          0.0466          0.4550 
       66700.00          0.0770          0.4441 
       66750.00          0.0534          0.4467 
       66800.00          0.0278          0.4542 
       66850.00          0.0331          0.4492 
       66900.00          0.0536          0.4538 
       66950.00          0.0546          0.4570 
       67000.00          0.0623          0.4579 
       67050.00          0.0883          0.4343 
       67100.00          0.0916          0.4329 
       67150.00          0.0997          0.4236 
       67200.00          0.1251          0.4300 
       67250.00          0.1614          0.4128 
       67300.00          0.1097          0.4523 
       67350.00          0.1820          0.3988 
       67400.00          0.1472          0.4245 
       67450.00          0.1413          0.4293 
       67500.00          0.1427          0.4255 
       67550.00          0.1158          0.4585 
       67600.00          0.1168          0.4602 
       67650.00          0.1216          0.4451 
       67700.00          0.1592          0.4124 
       67750.00          0.1466          0.4218 
       67800.00          0.0984          0.4411 
       67850.00          0.0449          0.4465 
       67900.00          0.0881          0.4377 
       67950.00          0.1109          0.4390 
       68000.00          0.1123          0.4622 
       68050.00          0.0748          0.4622 
       68100.00          0.0683          0.4552 
       68150.00          0.1251          0.4461 
       68200.00          0.1768          0.4184 
       68250.00          0.1500          0.4473 
       68300.00          0.1526          0.4695 
       68350.00          0.1871          0.4332 
       68400.00          0.1733          0.4239 
       68450.00          0.1755          0.4358 
       68500.00          0.1988          0.4265 
       68550.00          0.1726          0.4356 
       68600.00          0.2079          0.4248 
       68650.00          0.1846          0.4240 
       68700.00          0.1979          0.4160 
       68750.00          0.1839          0.4242 
       68800.00          0.2074          0.4145 
       68850.00          0.2065          0.4184 
       68900.00          0.2492          0.3778 
       68950.00          0.2346          0.3935 
       69000.00          0.2307          0.3840 
       69050.00          0.2506          0.3864 
       69100.00          0.2390          0.3863 
       69150.00          0.2428          0.3796 
       69200.00          0.2338          0.3883 
       69250.00          0.2232          0.4057 
       69300.00          0.2192          0.4196 
       69350.00          0.2037          0.4130 
       69400.00          0.1857          0.4365 
       69450.00          0.2111          0.4142 
       69500.00          0.1650          0.4340 
       69550.00          0.1701          0.4286 
       69600.00          0.1795          0.4251 
       69650.00          0.1921          0.4153 
       69700.00          0.1745          0.4409 
       69750.00          0.2001          0.4119 
       69800.00          0.2010          0.4180 
       69850.00          0.1599          0.4309 
       69900.00          0.1607          0.4452 
       69950.00          0.1850          0.4235 
       70000.00          0.1669          0.4278 
       70050.00          0.2036          0.4102 
       70100.00          0.1730          0.4300 
       70150.00          0.2181          0.4046 
       70200.00          0.1624          0.4310 
       70250.00          0.2143          0.4127 
       70300.00          0.1825          0.4289 
       70350.00          0.2016          0.4154 
       70400.00          0.1898          0.4149 
       70450.00          0.2031          0.4068 
       70500.00          0.2039          0.4287 
       70550.00          0.1814          0.4393 
       70600.00          0.1708          0.4363 
       70650.00          0.1852          0.4224 
       70700.00          0.1577          0.4430 
       70750.00          0.1751          0.4763 
       70800.00          0.1312          0.4532 
       70850.00          0.1288          0.4605 
       70900.00          0.2031          0.4077 
       70950.00          0.1918          0.4229 
       71000.00          0.1880          0.4106 
       71050.00          0.1929          0.4238 
       71100.00          0.1770          0.4282 
       71150.00          0.1823          0.4278 
       71200.00          0.1809          0.4310 
       71250.00          0.1097          0.4556 
       71300.00          0.1374          0.4439 
       71350.00          0.1740          0.4221 
       71400.00          0.1902          0.4262 
       71450.00          0.2013          0.4081 
       71500.00          0.2052          0.4256 
       71550.00          0.2333          0.3869 
       71600.00          0.1988          0.4100 
       71650.00          0.2197          0.4066 
       71700.00          0.2108          0.4097 
       71750.00          0.2225          0.4117 
       71800.00          0.1979          0.4244 
       71850.00          0.1664          0.4262 
       71900.00          0.1673          0.4368 
       71950.00          0.1803          0.4179 
       72000.00          0.2174          0.4014 
       72050.00          0.1992          0.4218 
       72100.00          0.1888          0.4282 
       72150.00          0.1985          0.4176 
       72200.00          0.1856          0.4173 
       72250.00          0.1788          0.4194 
       72300.00          0.1999          0.4122 
       72350.00          0.2229          0.4061 
       72400.00          0.1970          0.4114 
       72450.00          0.2042          0.4206 
       72500.00          0.1961          0.4315 
       72550.00          0.2052          0.4148 
       72600.00          0.2237          0.4039 
       72650.00          0.2101          0.4043 
       72700.00          0.2019          0.4112 
       72750.00          0.1721          0.4320 
       72800.00          0.1917          0.4363 
       72850.00          0.2075          0.4130 
       72900.00          0.1982          0.4259 
       72950.00          0.1681          0.4390 
       73000.00          0.1887          0.4310 
       73050.00          0.1628          0.4374 
       73100.00          0.1517          0.4402 
       73150.00          0.1350          0.4497 
       73200.00          0.1267          0.4305 
       73250.00          0.0791          0.4503 
       73300.00          0.0877          0.4394 
       73350.00          0.1060          0.4435 
       73400.00          0.1317          0.4280 
       73450.00          0.0812          0.4397 
       73500.00          0.1262          0.4354 
       73550.00          0.0848          0.4250 
       73600.00          0.0785          0.4422 
       73650.00          0.0893          0.4464 
       73700.00          0.0775          0.4666 
       73750.00          0.2180          0.4098 
       73800.00          0.2229          0.3915 
       73850.00          0.2170          0.4124 
       73900.00          0.1877          0.4226 
       73950.00          0.1916          0.4196 
       74000.00          0.2094          0.4181 
       74050.00          0.1882          0.4272 
       74100.00          0.1550          0.4474 
       74150.00          0.2079          0.4202 
       74200.00          0.2207          0.4060 
       74250.00          0.1659          0.4351 
       74300.00          0.1487          0.4438 
       74350.00          0.1358          0.4470 
       74400.00          0.1838          0.4304 
       74450.00          0.1663          0.4445 
       74500.00          0.1854          0.4287 
       74550.00          0.2045          0.4187 
       74600.00          0.2096          0.4022 
       74650.00          0.1973          0.4229 
       74700.00          0.1938          0.4198 
       74750.00          0.2000          0.4128 
       74800.00          0.1915          0.4123 
       74850.00          0.1706          0.4274 
       74900.00          0.1825          0.4192 
       74950.00          0.1729          0.4281 
       75000.00          0.1983          0.4242 
       75050.00          0.2084          0.4161 
       75100.00          0.2159          0.4078 
       75150.00          0.2209          0.4074 
       75200.00          0.2181          0.4190 
       75250.00          0.1962          0.4104 
       75300.00          0.1703          0.4224 
       75350.00          0.1943          0.4174 
       75400.00          0.1846          0.4224 
       75450.00          0.1774          0.4352 
       75500.00          0.1905          0.4233 
       75550.00          0.1958          0.4180 
       75600.00          0.1702          0.4491 
       75650.00          0.2145          0.4070 
       75700.00          0.2166          0.4063 
       75750.00          0.1853          0.4240 
       75800.00          0.1968          0.4238 
       75850.00          0.2120          0.4055 
       75900.00          0.2106          0.3959 
       75950.00          0.1886          0.4027 
       76000.00          0.1557          0.4258 
       76050.00          0.1165          0.4282 
       76100.00          0.1589          0.4162 
       76150.00          0.0965          0.4601 
       76200.00          0.1822          0.4321 
       76250.00          0.2040          0.4200 
       76300.00          0.1959          0.4253 
       76350.00          0.1785          0.4233 
       76400.00          0.1874          0.4233 
       76450.00          0.2092          0.4230 
       76500.00          0.1871          0.4306 
       76550.00          0.2067          0.4186 
       76600.00          0.2062          0.4118 
       76650.00          0.2204          0.4076 
       76700.00          0.1861          0.4173 
       76750.00          0.1778          0.4293 
       76800.00          0.2158          0.4079 
       76850.00          0.1733          0.4239 
       76900.00          0.2290          0.3943 
       76950.00          0.1828          0.4278 
       77000.00          0.2003          0.4138 
       77050.00          0.1977          0.4262 
       77100.00          0.2046          0.4119 
       77150.00          0.1850          0.4114 
       77200.00          0.1376          0.4485 
       77250.00          0.1975          0.4112 
       77300.00          0.2055          0.4103 
       77350.00          0.1979          0.4138 
       77400.00          0.1929          0.4148 
       77450.00          0.1619          0.4371 
       77500.00          0.1328          0.4385 
       77550.00          0.0986          0.4525 
       77600.00          0.0890          0.4569 
       77650.00          0.0951          0.4442 
       77700.00          0.1257          0.4574 
       77750.00          0.1270          0.4525 
       77800.00          0.1559          0.4370 
       77850.00          0.1330          0.4430 
       77900.00          0.1799          0.4323 
       77950.00          0.1977          0.4205 
       78000.00          0.2092          0.4179 
       78050.00          0.1919          0.4242 
       78100.00          0.2207          0.4003 
       78150.00          0.1959          0.4204 
       78200.00          0.1957          0.4198 
       78250.00          0.1960          0.4223 
       78300.00          0.1891          0.4299 
       78350.00          0.2356          0.4042 
       78400.00          0.2065          0.4150 
       78450.00          0.2200          0.4127 
       78500.00          0.2132          0.4026 
       78550.00          0.1499          0.4415 
       78600.00          0.2155          0.4435 
       78650.00          0.2623          0.3857 
       78700.00          0.2751          0.3966 
       78750.00          0.2742          0.3879 
       78800.00          0.2580          0.3991 
       78850.00          0.2480          0.3949 
       78900.00          0.2722          0.3891 
       78950.00          0.2808          0.3951 
       79000.00          0.3221          0.3800 
       79050.00          0.3173          0.3850 
       79100.00          0.2878          0.3902 
       79150.00          0.2864          0.3959 
       79200.00          0.3060          0.3758 
       79250.00          0.3037          0.3753 
       79300.00          0.3293          0.3728 
       79350.00          0.3083          0.3749 
       79400.00          0.2459          0.4110 
       79450.00          0.2797          0.3753 
       79500.00          0.2961          0.3756 
       79550.00          0.2908          0.3976 
       79600.00          0.3089          0.3856 
       79650.00          0.3167          0.3790 
       79700.00          0.3079          0.3679 
       79750.00          0.2954          0.3846 
       79800.00          0.3182          0.3851 
       79850.00          0.2775          0.3933 
       79900.00          0.2482          0.4003 
       79950.00          0.2787          0.3738 
       80000.00          0.1972          0.4121 
       80050.00          0.2354          0.3959 
       80100.00          0.1539          0.4388 
       80150.00          0.1783          0.4287 
       80200.00          0.2330          0.3899 
       80250.00          0.1851          0.4127 
       80300.00          0.1692          0.4397 
       80350.00          0.2003          0.4319 
       80400.00          0.2196          0.4291 
       80450.00          0.2075          0.4290 
       80500.00          0.2128          0.4307 
       80550.00          0.2703          0.3878 
       80600.00          0.2465          0.4501 
       80650.00          0.2432          0.4243 
       80700.00          0.2655          0.4168 
       80750.00          0.2501          0.4085 
       80800.00          0.1690          0.4555 
       80850.00          0.1178          0.4537 
       80900.00          0.1593          0.4389 
       80950.00          0.1740          0.4493 
       81000.00          0.2100          0.4279 
       81050.00          0.2329          0.4157 
       81100.00          0.2765          0.3854 
       81150.00          0.2848          0.3865 
       81200.00          0.2673          0.3911 
       81250.00          0.2501          0.4001 
       81300.00          0.3006          0.3777 
       81350.00          0.2639          0.3964 
       81400.00          0.2825          0.3837 
       81450.00          0.2588          0.3897 
       81500.00          0.2465          0.4101 
       81550.00          0.2180          0.4174 
       81600.00          0.2341          0.4254 
       81650.00          0.2638          0.3936 
       81700.00          0.2654          0.3947 
       81750.00          0.2755          0.3918 
       81800.00          0.2738          0.3861 
       81850.00          0.2464          0.4191 
       81900.00          0.2614          0.4032 
       81950.00          0.2570          0.3978 
       82000.00          0.2391          0.4091 
       82050.00          0.2764          0.4010 
       82100.00          0.2730          0.3876 
       82150.00          0.2612          0.4091 
       82200.00          0.2657          0.3881 
       82250.00          0.3195          0.3714 
       82300.00          0.2530          0.3937 
       82350.00          0.2365          0.4071 
       82400.00          0.2063          0.4165 
       82450.00          0.1996          0.4167 
       82500.00          0.1930          0.4094 
       82550.00          0.2137          0.4012 
       82600.00          0.2661          0.3915 
       82650.00          0.1863          0.4118 
       82700.00          0.2047          0.4057 
       82750.00          0.2909          0.3719 
       82800.00          0.3005          0.3834 
       82850.00          0.2733          0.3849 
       82900.00          0.2849          0.3706 
       82950.00          0.3254          0.3859 
       83000.00          0.2821          0.3983 
       83050.00          0.2789          0.3869 
       83100.00          0.2340          0.4015 
       83150.00          0.3099          0.3800 
       83200.00          0.3064          0.3797 
       83250.00          0.2974          0.3853 
       83300.00          0.2380          0.3867 
       83350.00          0.2495          0.3957 
       83400.00          0.2707          0.3885 
       83450.00          0.2631          0.4005 
       83500.00          0.2505          0.4062 
       83550.00          0.2729          0.3788 
       83600.00          0.2586          0.3924 
       83650.00          0.2732          0.3755 
       83700.00          0.2968          0.3737 
       83750.00          0.3035          0.3729 
       83800.00          0.2999          0.3811 
       83850.00          0.2911          0.3891 
       83900.00          0.2844          0.3740 
       83950.00          0.2457          0.4149 
       84000.00          0.2869          0.3758 
       84050.00          0.2909          0.3748 
       84100.00          0.2831          0.3839 
       84150.00          0.2743          0.3841 
       84200.00          0.2827          0.3799 
       84250.00          0.2785          0.3846 
       84300.00          0.2710          0.3994 
       84350.00          0.2546          0.4094 
       84400.00          0.1907          0.4230 
       84450.00          0.1750          0.4181 
       84500.00          0.0636          0.4684 
       84550.00          0.1448          0.4444 
       84600.00          0.1527          0.4461 
       84650.00          0.1703          0.4214 
       84700.00          0.2127          0.4115 
       84750.00          0.2187          0.4105 
       84800.00          0.2075          0.4177 
       84850.00          0.2307          0.4023 
       84900.00          0.2042          0.4169 
       84950.00          0.1834          0.4237 
       85000.00          0.2158          0.4048 
       85050.00          0.2092          0.4060 
       85100.00          0.1847          0.4152 
       85150.00          0.1823          0.4217 
       85200.00          0.1703          0.4271 
       85250.00          0.2455          0.3864 
       85300.00          0.1882          0.4205 
       85350.00          0.2490          0.3895 
       85400.00          0.1689          0.4439 
       85450.00          0.1324          0.4527 
       85500.00          0.0714          0.4533 
       85550.00          0.0958          0.4560 
       85600.00          0.0696          0.4402 
       85650.00          0.0968          0.4279 
       85700.00          0.0985          0.4377 
       85750.00          0.0679          0.4360 
       85800.00          0.1842          0.4095 
       85850.00          0.1504          0.4135 
       85900.00          0.1387          0.4198 
       85950.00          0.1531          0.4190 
       86000.00          0.1785          0.4134 
       86050.00          0.1542          0.4239 
       86100.00          0.1161          0.4598 
       86150.00          0.0767          0.4595 
       86200.00          0.1233          0.4777 
       86250.00          0.1165          0.4535 
       86300.00          0.1097          0.4388 
       86350.00          0.0583          0.4543 
       86400.00          0.1057          0.4396 
       86450.00          0.1003          0.4380 
       86500.00          0.0410          0.4433 
       86550.00          0.0721          0.4409 
       86600.00          0.0756          0.4473 
       86650.00          0.0611          0.4359 
       86700.00          0.0761          0.4330 
       86750.00          0.0574          0.4449 
       86800.00          0.0578          0.4524 
       86850.00          0.0792          0.4480 
       86900.00          0.0678          0.4462 
       86950.00          0.0686          0.4532 
       87000.00          0.0800          0.4513 
       87050.00          0.0763          0.4397 
       87100.00          0.0471          0.4464 
       87150.00          0.0790          0.4420 
       87200.00          0.0789          0.4526 
       87250.00          0.0537          0.4445 
       87300.00          0.0590          0.4425 
       87350.00          0.0451          0.4432 
       87400.00          0.0590          0.4509 
       87450.00          0.1210          0.4238 
       87500.00          0.0666          0.4565 
       87550.00          0.0775          0.4457 
       87600.00          0.1223          0.4204 
       87650.00          0.0800          0.4400 
       87700.00          0.1080          0.4405 
       87750.00          0.0804          0.4478 
       87800.00          0.0736          0.4448 
       87850.00          0.1058          0.4289 
       87900.00          0.0732          0.4484 
       87950.00          0.0848          0.4321 
       88000.00          0.0752          0.4296 
       88050.00          0.0510          0.4432 
       88100.00          0.0781          0.4509 
       88150.00          0.0919          0.4382 
       88200.00          0.0744          0.4382 
       88250.00          0.1051          0.4369 
       88300.00          0.0782          0.4424 
       88350.00          0.0602          0.4467 
       88400.00          0.1195          0.4247 
       88450.00          0.0728          0.4357 
       88500.00          0.0825          0.4377 
       88550.00          0.0607          0.4432 
       88600.00          0.0309          0.4395 
       88650.00          0.0376          0.4466 
       88700.00          0.1046          0.4405 
       88750.00          0.0677          0.4491 
       88800.00          0.0251          0.4478 
       88850.00          0.0968          0.4475 
       88900.00          0.0852          0.4281 
       88950.00          0.0456          0.4466 
       89000.00          0.0926          0.4446 
       89050.00          0.0511          0.4494 
       89100.00          0.0819          0.4439 
       89150.00          0.0648          0.4504 
       89200.00          0.0364          0.4464 
       89250.00          0.0609          0.4409 
       89300.00          0.0634          0.4463 
       89350.00          0.0669          0.4395 
       89400.00          0.0818          0.4368 
       89450.00          0.0643          0.4262 
       89500.00          0.0782          0.4408 
       89550.00          0.0801          0.4497 
       89600.00          0.0435          0.4488 
       89650.00          0.0380          0.4543 
       89700.00          0.0218          0.4498 
       89750.00          0.0430          0.4503 
       89800.00          0.0592          0.4392 
       89850.00          0.0727          0.4424 
       89900.00          0.0468          0.4442 
       89950.00          0.0624          0.4556 
       90000.00          0.0525          0.4493 
       90050.00          0.0614          0.4326 
       90100.00          0.0872          0.4390 
       90150.00          0.0767          0.4477 
       90200.00          0.0459          0.4450 
       90250.00          0.0347          0.4506 
       90300.00          0.0501          0.4507 
       90350.00          0.0661          0.4411 
       90400.00          0.0454          0.4511 
       90450.00          0.0242          0.4472 
       90500.00          0.0554          0.4449 
       90550.00          0.0530          0.4401 
       90600.00          0.0548          0.4546 
       90650.00          0.0594          0.4488 
       90700.00          0.0522          0.4442 
       90750.00          0.0642          0.4390 
       90800.00          0.0711          0.4482 
       90850.00          0.0714          0.4413 
       90900.00          0.0573          0.4326 
       90950.00          0.0566          0.4411 
       91000.00          0.1136          0.4301 
       91050.00          0.1168          0.4356 
       91100.00          0.0851          0.4318 
       91150.00          0.0950          0.4336 
       91200.00          0.0753          0.4489 
       91250.00          0.0599          0.4474 
       91300.00          0.0637          0.4417 
       91350.00          0.0736          0.4403 
       91400.00          0.0792          0.4532 
       91450.00          0.0958          0.4347 
       91500.00          0.0819          0.4461 
       91550.00          0.0596          0.4342 
       91600.00          0.0678          0.4531 
       91650.00          0.0927          0.4368 
       91700.00          0.1386          0.4225 
       91750.00          0.0901          0.4555 
       91800.00          0.0602          0.4421 
       91850.00          0.0855          0.4486 
       91900.00          0.0451          0.4461 
       91950.00          0.0632          0.4363 
       92000.00          0.0596          0.4384 
       92050.00          0.0693          0.4399 
       92100.00          0.0989          0.4419 
       92150.00          0.0797          0.4533 
       92200.00          0.0347          0.4452 
       92250.00          0.0579          0.4359 
       92300.00          0.0443          0.4555 
       92350.00          0.0578          0.4511 
       92400.00          0.0701          0.4463 
       92450.00          0.0682          0.4367 
       92500.00          0.0615          0.4411 
       92550.00          0.0621          0.4340 
       92600.00          0.0767          0.4274 
       92650.00          0.0722          0.4400 
       92700.00          0.0771          0.4379 
       92750.00          0.0919          0.4429 
       92800.00          0.0505          0.4381 
       92850.00          0.0954          0.4149 
       92900.00          0.0817          0.4416 
       92950.00          0.0670          0.4352 
       93000.00          0.0573          0.4487 
       93050.00          0.0811          0.4441 
       93100.00          0.0697          0.4437 
       93150.00          0.0522          0.4545 
       93200.00          0.0657          0.4383 
       93250.00          0.0828          0.4455 
       93300.00          0.1162          0.4336 
       93350.00          0.0599          0.4417 
       93400.00          0.0821          0.4292 
       93450.00          0.0732          0.4496 
       93500.00          0.0801          0.4387 
       93550.00          0.0625          0.4540 
       93600.00          0.0430          0.4509 
       93650.00          0.0579          0.4427 
       93700.00          0.0656          0.4332 
       93750.00          0.0580          0.4511 
       93800.00          0.0501          0.4467 
       93850.00          0.0554          0.4428 
       93900.00          0.0655          0.4472 
       93950.00          0.0367          0.4417 
       94000.00          0.0356          0.4479 
       94050.00          0.0338          0.4448 
       94100.00          0.0677          0.4445 
       94150.00          0.0434          0.4488 
       94200.00          0.0682          0.4374 
       94250.00          0.0639          0.4472 
       94300.00          0.0651          0.4384 
       94350.00          0.0427          0.4439 
       94400.00          0.0371          0.4501 
       94450.00          0.0457          0.4460 
       94500.00          0.0636          0.4457 
       94550.00          0.0884          0.4432 
       94600.00          0.0694          0.4439 
       94650.00          0.0679          0.4408 
       94700.00          0.0686          0.4372 
       94750.00          0.0923          0.4333 
       94800.00          0.0673          0.4514 
       94850.00          0.0308          0.4489 
       94900.00          0.0336          0.4450 
       94950.00          0.0815          0.4522 
       95000.00          0.0873          0.4272 
       95050.00          0.0728          0.4362 
       95100.00          0.0821          0.4256 
       95150.00          0.0790          0.4401 
       95200.00          0.0683          0.4367 
       95250.00          0.0718          0.4379 
       95300.00          0.0765          0.4373 
       95350.00          0.0675          0.4450 
       95400.00          0.0659          0.4352 
       95450.00          0.0721          0.4326 
       95500.00          0.0775          0.4276 
       95550.00          0.0584          0.4494 
       95600.00          0.0610          0.4550 
       95650.00          0.0631          0.4415 
       95700.00          0.0539          0.4538 
       95750.00          0.0688          0.4535 
       95800.00          0.0398          0.4553 
       95850.00          0.0637          0.4382 
       95900.00          0.0922          0.4353 
       95950.00          0.0803          0.4424 
       96000.00          0.0396          0.4487 
       96050.00          0.0730          0.4386 
       96100.00          0.0791          0.4533 
       96150.00          0.0274          0.4457 
       96200.00          0.0545          0.4452 
       96250.00          0.0734          0.4416 
       96300.00          0.0383          0.4539 
       96350.00          0.0846          0.4463 
       96400.00          0.0543          0.4332 
       96450.00          0.0617          0.4501 
       96500.00          0.0968          0.4337 
       96550.00          0.1202          0.4365 
       96600.00          0.1023          0.4399 
       96650.00          0.0705          0.4485 
       96700.00          0.0440          0.4497 
       96750.00          0.0542          0.4384 
       96800.00          0.0461          0.4392 
       96850.00          0.0408          0.4479 
       96900.00          0.0838          0.4418 
       96950.00          0.0664          0.4326 
       97000.00          0.0964          0.4361 
       97050.00          0.0382          0.4567 
       97100.00          0.0292          0.4443 
       97150.00          0.0596          0.4378 
       97200.00          0.0586          0.4391 
       97250.00          0.0713          0.4337 
       97300.00          0.0743          0.4516 
       97350.00          0.0799          0.4427 
       97400.00          0.0510          0.4375 
       97450.00          0.0656          0.4424 
       97500.00          0.0588          0.4524 
       97550.00          0.0919          0.4431 
       97600.00          0.0521          0.4409 
       97650.00          0.0666          0.4474 
       97700.00          0.0533          0.4440 
       97750.00          0.0720          0.4304 
       97800.00          0.0981          0.4293 
       97850.00          0.0728          0.4387 
       97900.00          0.0805          0.4386 
       97950.00          0.0737          0.4353 
       98000.00          0.0909          0.4242 
       98050.00          0.0501          0.4387 
       98100.00          0.0543          0.4567 
       98150.00          0.0708          0.4369 
       98200.00          0.0589          0.4449 
       98250.00          0.0717          0.4349 
       98300.00          0.0622          0.4521 
       98350.00          0.0916          0.4316 
       98400.00          0.0746          0.4460 
       98450.00          0.0726          0.4427 
       98500.00          0.1188          0.4442 
       98550.00          0.1253          0.4343 
       98600.00          0.0577          0.4520 
       98650.00          0.0963          0.4412 
       98700.00          0.0524          0.4426 
       98750.00          0.1002          0.4331 
       98800.00          0.0756          0.4499 
       98850.00          0.0680          0.4493 
       98900.00          0.0537          0.4339 
       98950.00          0.0658          0.4454 
       99000.00          0.1252          0.4283 
       99050.00          0.0677          0.4383 
       99100.00          0.0599          0.4446 
       99150.00          0.0598          0.4595 
       99200.00          0.0664          0.4471 
       99250.00          0.0657          0.4345 
       99300.00          0.1088          0.4425 
       99350.00          0.0932          0.4342 
       99400.00          0.0724          0.4450 
       99450.00          0.0771          0.4327 
       99500.00          0.1128          0.4370 
       99550.00          0.0994          0.4460 
       99600.00          0.1211          0.4256 
       99650.00          0.0657          0.4405 
       99700.00          0.0751          0.4476 
       99750.00          0.0365          0.4517 
       99800.00          0.0726          0.4404 
       99850.00          0.0695          0.4271 
       99900.00          0.0603          0.4591 
       99950.00          0.0715          0.4372 
      100000.00          0.0370          0.4472 
