@    xaxis  label "t"
@    yaxis  label "RMSD (nm)"
           0.00          0.0002          0.4517 
          50.00          0.2057          0.4174 
         100.00          0.2333          0.4620 
         150.00          0.2259          0.4969 
         200.00          0.1543          0.5108 
         250.00          0.2549          0.5230 
         300.00          0.2914          0.4583 
         350.00          0.3044          0.5265 
         400.00          0.4085          0.6022 
         450.00          0.3443          0.5983 
         500.00          0.3882          0.6623 
         550.00          0.4485          0.6737 
         600.00          0.4826          0.6964 
         650.00          0.4130          0.6448 
         700.00          0.4223          0.5896 
         750.00          0.4248          0.5974 
         800.00          0.4536          0.6793 
         850.00          0.4547          0.7032 
         900.00          0.4692          0.6812 
         950.00          0.4186          0.6279 
        1000.00          0.4393          0.6354 
        1050.00          0.4631          0.6695 
        1100.00          0.4509          0.6707 
        1150.00          0.4242          0.6223 
        1200.00          0.3988          0.5849 
        1250.00          0.3715          0.5706 
        1300.00          0.4055          0.5738 
        1350.00          0.3783          0.5174 
        1400.00          0.3747          0.6023 
        1450.00          0.3493          0.6145 
        1500.00          0.4237          0.6466 
        1550.00          0.4255          0.6647 
        1600.00          0.4532          0.6407 
        1650.00          0.4086          0.5312 
        1700.00          0.3676          0.4706 
        1750.00          0.3858          0.4010 
        1800.00          0.3448          0.4236 
        1850.00          0.3447          0.4558 
        1900.00          0.2946          0.4734 
        1950.00          0.2761          0.5299 
        2000.00          0.2764          0.5007 
        2050.00          0.3158          0.4502 
        2100.00          0.3743          0.4173 
        2150.00          0.3764          0.4096 
        2200.00          0.3891          0.3836 
        2250.00          0.3908          0.3164 
        2300.00          0.4340          0.2530 
        2350.00          0.4078          0.3138 
        2400.00          0.4243          0.2166 
        2450.00          0.4530          0.1426 
        2500.00          0.4372          0.1783 
        2550.00          0.4499          0.1938 
        2600.00          0.4575          0.2457 
        2650.00          0.3966          0.3025 
        2700.00          0.4139          0.2955 
        2750.00          0.4413          0.3587 
        2800.00          0.4412          0.4625 
        2850.00          0.4180          0.4331 
        2900.00          0.4784          0.5213 
        2950.00          0.3689          0.4562 
        3000.00          0.3766          0.3716 
        3050.00          0.3898          0.3916 
        3100.00          0.4592          0.2619 
        3150.00          0.4621          0.2296 
        3200.00          0.4774          0.2001 
        3250.00          0.4731          0.1843 
        3300.00          0.4908          0.2400 
        3350.00          0.4787          0.2978 
        3400.00          0.4786          0.2856 
        3450.00          0.5085          0.3720 
        3500.00          0.3932          0.4098 
        3550.00          0.3891          0.3565 
        3600.00          0.4035          0.3476 
        3650.00          0.4529          0.3305 
        3700.00          0.4517          0.3329 
        3750.00          0.4430          0.2920 
        3800.00          0.4453          0.2681 
        3850.00          0.4511          0.3040 
        3900.00          0.4357          0.3473 
        3950.00          0.4194          0.3583 
        4000.00          0.4102          0.3184 
        4050.00          0.3736          0.3321 
        4100.00          0.3850          0.3120 
        4150.00          0.4132          0.3361 
        4200.00          0.4218          0.4224 
        4250.00          0.4585          0.4814 
        4300.00          0.4048          0.4494 
        4350.00          0.4061          0.4032 
        4400.00          0.3839          0.4302 
        4450.00          0.3921          0.4901 
        4500.00          0.3981          0.5319 
        4550.00          0.4065          0.4719 
        4600.00          0.4143          0.3993 
        4650.00          0.4141          0.3989 
        4700.00          0.3579          0.3890 
        4750.00          0.4003          0.4254 
        4800.00          0.3655          0.4452 
        4850.00          0.3630          0.4512 
        4900.00          0.3784          0.4953 
        4950.00          0.3886          0.4887 
        5000.00          0.3358          0.4685 
        5050.00          0.4254          0.4518 
        5100.00          0.3916          0.5603 
        5150.00          0.3932          0.5868 
        5200.00          0.3983          0.5670 
        5250.00          0.4078          0.5649 
        5300.00          0.4206          0.5081 
        5350.00          0.4280          0.5495 
        5400.00          0.4910          0.6277 
        5450.00          0.4626          0.6314 
        5500.00          0.3996          0.4836 
        5550.00          0.3940          0.4644 
        5600.00          0.4177          0.4552 
        5650.00          0.4468          0.3205 
        5700.00          0.4434          0.3243 
        5750.00          0.4218          0.3464 
        5800.00          0.4109          0.3555 
        5850.00          0.4024          0.4462 
        5900.00          0.3984          0.4448 
        5950.00          0.4278          0.4356 
        6000.00          0.4185          0.4799 
        6050.00          0.4079          0.4643 
        6100.00          0.4056          0.4184 
        6150.00          0.3852          0.4322 
        6200.00          0.4222          0.4544 
        6250.00          0.3935          0.3910 
        6300.00          0.3566          0.4299 
        6350.00          0.4034          0.5600 
        6400.00          0.4142          0.5390 
        6450.00          0.3843          0.4771 
        6500.00          0.4405          0.5162 
        6550.00          0.3712          0.5007 
        6600.00          0.3877          0.5151 
        6650.00          0.3858          0.4786 
        6700.00          0.3683          0.4922 
        6750.00          0.3622          0.4451 
        6800.00          0.3664          0.5059 
        6850.00          0.4142          0.5152 
        6900.00          0.4130          0.5730 
        6950.00          0.3852          0.5434 
        7000.00          0.4198          0.5331 
        7050.00          0.4010          0.5893 
        7100.00          0.4087          0.5454 
        7150.00          0.3623          0.5323 
        7200.00          0.3980          0.6068 
        7250.00          0.4143          0.6208 
        7300.00          0.4014          0.5979 
        7350.00          0.3736          0.4698 
        7400.00          0.4500          0.5880 
        7450.00          0.4332          0.5895 
        7500.00          0.3965          0.4914 
        7550.00          0.4463          0.5222 
        7600.00          0.4300          0.5841 
        7650.00          0.4787          0.6191 
        7700.00          0.4792          0.6560 
        7750.00          0.4759          0.6724 
        7800.00          0.4323          0.6345 
        7850.00          0.4077          0.6102 
        7900.00          0.3572          0.5701 
        7950.00          0.3661          0.5926 
        8000.00          0.3319          0.5262 
        8050.00          0.3414          0.5090 
        8100.00          0.3274          0.5465 
        8150.00          0.3590          0.6000 
        8200.00          0.3749          0.5899 
        8250.00          0.4183          0.5525 
        8300.00          0.3744          0.5705 
        8350.00          0.3485          0.5225 
        8400.00          0.3680          0.5557 
        8450.00          0.4060          0.5584 
        8500.00          0.3856          0.5198 
        8550.00          0.3765          0.5830 
        8600.00          0.3641          0.5122 
        8650.00          0.3955          0.5609 
        8700.00          0.4012          0.5119 
        8750.00          0.4451          0.5522 
        8800.00          0.4367          0.5715 
        8850.00          0.4871          0.6594 
        8900.00          0.5095          0.7327 
        8950.00          0.4517          0.6229 
        9000.00          0.4244          0.6356 
        9050.00          0.4681          0.6734 
        9100.00          0.4823          0.6399 
        9150.00          0.4589          0.5736 
        9200.00          0.3979          0.5317 
        9250.00          0.4492          0.4736 
        9300.00          0.4321          0.5136 
        9350.00          0.4101          0.4446 
        9400.00          0.3888          0.4405 
        9450.00          0.4006          0.3464 
        9500.00          0.3741          0.3941 
        9550.00          0.3861          0.4875 
        9600.00          0.4292          0.5383 
        9650.00          0.4563          0.5520 
        9700.00          0.4006          0.5236 
        9750.00          0.3624          0.5465 
        9800.00          0.3691          0.5233 
        9850.00          0.3625          0.5029 
        9900.00          0.3734          0.4406 
        9950.00          0.3902          0.4934 
       10000.00          0.3302          0.4647 
       10050.00          0.2980          0.4680 
       10100.00          0.3636          0.5439 
       10150.00          0.3697          0.5358 
       10200.00          0.4027          0.4978 
       10250.00          0.3840          0.4633 
       10300.00          0.3930          0.4356 
       10350.00          0.3259          0.4858 
       10400.00          0.3703          0.4809 
       10450.00          0.3860          0.3510 
       10500.00          0.4001          0.3896 
       10550.00          0.3427          0.4417 
       10600.00          0.3351          0.4220 
       10650.00          0.3866          0.3539 
       10700.00          0.4074          0.3891 
       10750.00          0.3774          0.3533 
       10800.00          0.3664          0.3587 
       10850.00          0.3300          0.4316 
       10900.00          0.2877          0.4382 
       10950.00          0.3044          0.4355 
       11000.00          0.2959          0.4621 
       11050.00          0.3688          0.5235 
       11100.00          0.3744          0.4742 
       11150.00          0.4236          0.5724 
       11200.00          0.3875          0.5349 
       11250.00          0.3967          0.5853 
       11300.00          0.4246          0.6083 
       11350.00          0.3968          0.5233 
       11400.00          0.4120          0.5573 
       11450.00          0.3934          0.5584 
       11500.00          0.3845          0.5753 
       11550.00          0.4212          0.6153 
       11600.00          0.3899          0.5855 
       11650.00          0.4430          0.4942 
       11700.00          0.4052          0.4584 
       11750.00          0.3989          0.4478 
       11800.00          0.4003          0.5352 
       11850.00          0.3997          0.5873 
       11900.00          0.4047          0.5772 
       11950.00          0.4521          0.6319 
       12000.00          0.4904          0.6266 
       12050.00          0.4836          0.6822 
       12100.00          0.4852          0.6685 
       12150.00          0.4623          0.6428 
       12200.00          0.4075          0.5228 
       12250.00          0.4411          0.4747 
       12300.00          0.4487          0.4403 
       12350.00          0.4249          0.4741 
       12400.00          0.4202          0.4269 
       12450.00          0.4133          0.4427 
       12500.00          0.4605          0.4335 
       12550.00          0.4443          0.4403 
       12600.00          0.4101          0.5347 
       12650.00          0.4224          0.5356 
       12700.00          0.4195          0.4703 
       12750.00          0.3860          0.3663 
       12800.00          0.3779          0.4101 
       12850.00          0.3782          0.4789 
       12900.00          0.4109          0.5906 
       12950.00          0.3883          0.5764 
       13000.00          0.3971          0.6335 
       13050.00          0.3923          0.6309 
       13100.00          0.3717          0.5932 
       13150.00          0.4205          0.5570 
       13200.00          0.4454          0.6300 
       13250.00          0.4341          0.6359 
       13300.00          0.4428          0.6080 
       13350.00          0.4727          0.6771 
       13400.00          0.3923          0.6170 
       13450.00          0.3515          0.5473 
       13500.00          0.3555          0.5792 
       13550.00          0.3617          0.5421 
       13600.00          0.4236          0.5969 
       13650.00          0.4296          0.5658 
       13700.00          0.3840          0.5225 
       13750.00          0.3773          0.5655 
       13800.00          0.3355          0.5641 
       13850.00          0.4164          0.6323 
       13900.00          0.4159          0.5464 
       13950.00          0.4111          0.5453 
       14000.00          0.3979          0.5919 
       14050.00          0.3728          0.5212 
       14100.00          0.3982          0.5242 
       14150.00          0.3919          0.4374 
       14200.00          0.4129          0.4286 
       14250.00          0.4260          0.4900 
       14300.00          0.4382          0.4953 
       14350.00          0.3817          0.4674 
       14400.00          0.4052          0.5148 
       14450.00          0.4251          0.5766 
       14500.00          0.4410          0.6078 
       14550.00          0.4585          0.6534 
       14600.00          0.4458          0.6770 
       14650.00          0.4239          0.6076 
       14700.00          0.4177          0.5937 
       14750.00          0.4136          0.5961 
       14800.00          0.4581          0.6398 
       14850.00          0.4563          0.6685 
       14900.00          0.5003          0.6971 
       14950.00          0.4402          0.6216 
       15000.00          0.4606          0.6460 
       15050.00          0.4630          0.6253 
       15100.00          0.4645          0.5919 
       15150.00          0.4390          0.6467 
       15200.00          0.4052          0.5950 
       15250.00          0.4128          0.5569 
       15300.00          0.4513          0.6113 
       15350.00          0.4309          0.5559 
       15400.00          0.4315          0.4765 
       15450.00          0.4271          0.5603 
       15500.00          0.4590          0.5878 
       15550.00          0.4422          0.5739 
       15600.00          0.4097          0.4894 
       15650.00          0.4232          0.5105 
       15700.00          0.4152          0.4437 
       15750.00          0.4468          0.3877 
       15800.00          0.4129          0.4078 
       15850.00          0.4120          0.4806 
       15900.00          0.3850          0.4934 
       15950.00          0.4383          0.5574 
       16000.00          0.4751          0.6239 
       16050.00          0.4680          0.6887 
       16100.00          0.4940          0.6883 
       16150.00          0.4974          0.6669 
       16200.00          0.4987          0.6986 
       16250.00          0.4874          0.6694 
       16300.00          0.4804          0.6429 
       16350.00          0.4610          0.6253 
       16400.00          0.4947          0.7062 
       16450.00          0.5261          0.7162 
       16500.00          0.4359          0.6249 
       16550.00          0.4438          0.6832 
       16600.00          0.4232          0.6333 
       16650.00          0.3890          0.5210 
       16700.00          0.3632          0.5032 
       16750.00          0.3792          0.5749 
       16800.00          0.4305          0.5821 
       16850.00          0.4452          0.5826 
       16900.00          0.4309          0.5646 
       16950.00          0.4701          0.6234 
       17000.00          0.4002          0.5796 
       17050.00          0.4392          0.5973 
       17100.00          0.4749          0.6408 
       17150.00          0.4271          0.6166 
       17200.00          0.4677          0.6698 
       17250.00          0.4660          0.6703 
       17300.00          0.4173          0.5986 
       17350.00          0.4304          0.5852 
       17400.00          0.4503          0.5578 
       17450.00          0.4749          0.5758 
       17500.00          0.4449          0.5917 
       17550.00          0.4617          0.5835 
       17600.00          0.4409          0.5780 
       17650.00          0.4060          0.5606 
       17700.00          0.4038          0.6003 
       17750.00          0.4371          0.6290 
       17800.00          0.4428          0.6285 
       17850.00          0.4792          0.6934 
       17900.00          0.4728          0.6604 
       17950.00          0.4208          0.6350 
       18000.00          0.5272          0.7616 
       18050.00          0.4899          0.6998 
       18100.00          0.4774          0.6331 
       18150.00          0.4460          0.5986 
       18200.00          0.4570          0.5283 
       18250.00          0.4417          0.5434 
       18300.00          0.4352          0.5568 
       18350.00          0.4072          0.5855 
       18400.00          0.4178          0.5496 
       18450.00          0.4422          0.5637 
       18500.00          0.4257          0.5737 
       18550.00          0.4058          0.5495 
       18600.00          0.4355          0.5337 
       18650.00          0.4347          0.5421 
       18700.00          0.4028          0.5130 
       18750.00          0.4060          0.3603 
       18800.00          0.3726          0.3690 
       18850.00          0.3905          0.3644 
       18900.00          0.4079          0.3612 
       18950.00          0.3879          0.2875 
       19000.00          0.3833          0.2693 
       19050.00          0.4342          0.3816 
       19100.00          0.4150          0.4503 
       19150.00          0.4445          0.4497 
       19200.00          0.3980          0.4245 
       19250.00          0.4208          0.4822 
       19300.00          0.4335          0.5381 
       19350.00          0.4679          0.6429 
       19400.00          0.4319          0.6533 
       19450.00          0.4447          0.6660 
       19500.00          0.3892          0.5993 
       19550.00          0.3830          0.5957 
       19600.00          0.3880          0.5406 
       19650.00          0.4213          0.6063 
       19700.00          0.4316          0.6270 
       19750.00          0.4275          0.6570 
       19800.00          0.3924          0.6248 
       19850.00          0.3765          0.6252 
       19900.00          0.3610          0.6041 
       19950.00          0.3692          0.5479 
       20000.00          0.3843          0.6157 
       20050.00          0.3775          0.6234 
       20100.00          0.3991          0.6402 
       20150.00          0.4246          0.6399 
       20200.00          0.3505          0.5945 
       20250.00          0.3624          0.5739 
       20300.00          0.3589          0.5573 
       20350.00          0.3751          0.5470 
       20400.00          0.3641          0.5435 
       20450.00          0.3911          0.4121 
       20500.00          0.3844          0.3046 
       20550.00          0.3779          0.3241 
       20600.00          0.3856          0.4428 
       20650.00          0.3743          0.4373 
       20700.00          0.3612          0.4736 
       20750.00          0.3571          0.4931 
       20800.00          0.3926          0.5480 
       20850.00          0.4336          0.5726 
       20900.00          0.4496          0.5854 
       20950.00          0.3637          0.5280 
       21000.00          0.4009          0.5375 
       21050.00          0.4069          0.5278 
       21100.00          0.3619          0.5115 
       21150.00          0.3735          0.6020 
       21200.00          0.4072          0.6345 
       21250.00          0.4150          0.6135 
       21300.00          0.4519          0.6063 
       21350.00          0.4125          0.5638 
       21400.00          0.4173          0.6286 
       21450.00          0.4109          0.5952 
       21500.00          0.3763          0.5423 
       21550.00          0.3910          0.4918 
       21600.00          0.4400          0.5023 
       21650.00          0.4446          0.4689 
       21700.00          0.4008          0.4617 
       21750.00          0.4461          0.5699 
       21800.00          0.3844          0.5392 
       21850.00          0.4706          0.6088 
       21900.00          0.4661          0.5459 
       21950.00          0.4223          0.5426 
       22000.00          0.4492          0.6086 
       22050.00          0.4586          0.6474 
       22100.00          0.3947          0.6317 
       22150.00          0.3982          0.6228 
       22200.00          0.3259          0.5536 
       22250.00          0.3351          0.4919 
       22300.00          0.3539          0.4477 
       22350.00          0.3448          0.4265 
       22400.00          0.3531          0.3905 
       22450.00          0.3872          0.3865 
       22500.00          0.4184          0.3106 
       22550.00          0.3953          0.3263 
       22600.00          0.3882          0.3524 
       22650.00          0.4107          0.3547 
       22700.00          0.3812          0.3190 
       22750.00          0.3776          0.3528 
       22800.00          0.3979          0.3643 
       22850.00          0.4101          0.4591 
       22900.00          0.4124          0.3837 
       22950.00          0.4598          0.2791 
       23000.00          0.4337          0.2587 
       23050.00          0.3988          0.2601 
       23100.00          0.3682          0.3062 
       23150.00          0.4255          0.2525 
       23200.00          0.4395          0.2754 
       23250.00          0.4315          0.3790 
       23300.00          0.4246          0.2827 
       23350.00          0.4268          0.2362 
       23400.00          0.4206          0.2398 
       23450.00          0.4314          0.2416 
       23500.00          0.4386          0.3127 
       23550.00          0.4108          0.3212 
       23600.00          0.3992          0.3556 
       23650.00          0.4028          0.3822 
       23700.00          0.3530          0.4292 
       23750.00          0.4023          0.4658 
       23800.00          0.3903          0.4657 
       23850.00          0.3776          0.4089 
       23900.00          0.3775          0.4371 
       23950.00          0.4151          0.5061 
       24000.00          0.3591          0.4251 
       24050.00          0.3916          0.3458 
       24100.00          0.3628          0.3837 
       24150.00          0.3568          0.3210 
       24200.00          0.3941          0.3699 
       24250.00          0.3714          0.4585 
       24300.00          0.3326          0.4864 
       24350.00          0.3296          0.4587 
       24400.00          0.4068          0.5989 
       24450.00          0.3763          0.5686 
       24500.00          0.4137          0.5444 
       24550.00          0.4675          0.5724 
       24600.00          0.4209          0.4364 
       24650.00          0.3949          0.2736 
       24700.00          0.3832          0.3237 
       24750.00          0.3720          0.4110 
       24800.00          0.4107          0.4720 
       24850.00          0.4199          0.4698 
       24900.00          0.4278          0.3890 
       24950.00          0.4449          0.4827 
       25000.00          0.4415          0.5175 
       25050.00          0.5289          0.6523 
       25100.00          0.4679          0.6331 
       25150.00          0.4905          0.6397 
       25200.00          0.4725          0.6398 
       25250.00          0.4757          0.5999 
       25300.00          0.4815          0.6185 
       25350.00          0.5123          0.6828 
       25400.00          0.4751          0.6710 
       25450.00          0.4489          0.6695 
       25500.00          0.5011          0.6858 
       25550.00          0.4513          0.6030 
       25600.00          0.4626          0.6046 
       25650.00          0.4480          0.5528 
       25700.00          0.4901          0.5542 
       25750.00          0.4343          0.4604 
       25800.00          0.3909          0.5224 
       25850.00          0.3987          0.4523 
       25900.00          0.4178          0.4946 
       25950.00          0.4363          0.5684 
       26000.00          0.4074          0.5294 
       26050.00          0.3981          0.4494 
       26100.00          0.4433          0.5512 
       26150.00          0.4424          0.6045 
       26200.00          0.3753          0.5556 
       26250.00          0.3840          0.5966 
       26300.00          0.4084          0.6494 
       26350.00          0.4014          0.6673 
       26400.00          0.4107          0.5968 
       26450.00          0.3965          0.5882 
       26500.00          0.3376          0.5779 
       26550.00          0.3593          0.5722 
       26600.00          0.4276          0.6370 
       26650.00          0.3506          0.6032 
       26700.00          0.3832          0.6027 
       26750.00          0.3750          0.5852 
       26800.00          0.3734          0.5707 
       26850.00          0.3187          0.4990 
       26900.00          0.3784          0.6174 
       26950.00          0.4257          0.6607 
       27000.00          0.4829          0.6869 
       27050.00          0.4868          0.6740 
       27100.00          0.4779          0.7111 
       27150.00          0.4830          0.7054 
       27200.00          0.4251          0.5959 
       27250.00          0.3283          0.4690 
       27300.00          0.3210          0.4855 
       27350.00          0.3207          0.4543 
       27400.00          0.3101          0.4211 
       27450.00          0.3900          0.5392 
       27500.00          0.3967          0.5278 
       27550.00          0.3488          0.4652 
       27600.00          0.3372          0.3850 
       27650.00          0.4249          0.5002 
       27700.00          0.3621          0.4701 
       27750.00          0.3790          0.4523 
       27800.00          0.3801          0.4733 
       27850.00          0.3858          0.4954 
       27900.00          0.3854          0.4915 
       27950.00          0.3409          0.5038 
       28000.00          0.3765          0.4567 
       28050.00          0.3634          0.5145 
       28100.00          0.4049          0.5557 
       28150.00          0.3949          0.5196 
       28200.00          0.3916          0.4648 
       28250.00          0.3991          0.5204 
       28300.00          0.3878          0.6227 
       28350.00          0.4284          0.5949 
       28400.00          0.4375          0.6212 
       28450.00          0.3402          0.5979 
       28500.00          0.4086          0.6493 
       28550.00          0.4167          0.6346 
       28600.00          0.4257          0.6438 
       28650.00          0.4391          0.6673 
       28700.00          0.4377          0.6747 
       28750.00          0.4575          0.6638 
       28800.00          0.4535          0.6424 
       28850.00          0.4521          0.6434 
       28900.00          0.5036          0.7363 
       28950.00          0.4666          0.6623 
       29000.00          0.4239          0.5882 
       29050.00          0.4508          0.6104 
       29100.00          0.4390          0.5813 
       29150.00          0.4400          0.6053 
       29200.00          0.4934          0.7129 
       29250.00          0.5152          0.7201 
       29300.00          0.3766          0.6114 
       29350.00          0.4418          0.5709 
       29400.00          0.4568          0.6120 
       29450.00          0.4260          0.6351 
       29500.00          0.4072          0.5310 
       29550.00          0.3881          0.5648 
       29600.00          0.4184          0.5876 
       29650.00          0.4427          0.6368 
       29700.00          0.4029          0.5861 
       29750.00          0.3855          0.5555 
       29800.00          0.3757          0.5150 
       29850.00          0.3599          0.4565 
       29900.00          0.4174          0.4348 
       29950.00          0.4408          0.3033 
       30000.00          0.4412          0.2835 
       30050.00          0.4302          0.3083 
       30100.00          0.4797          0.3991 
       30150.00          0.4914          0.3555 
       30200.00          0.3959          0.3549 
       30250.00          0.4374          0.3295 
       30300.00          0.4821          0.3616 
       30350.00          0.4621          0.3362 
       30400.00          0.4598          0.3173 
       30450.00          0.3575          0.3449 
       30500.00          0.3694          0.3536 
       30550.00          0.3830          0.4207 
       30600.00          0.3966          0.4536 
       30650.00          0.3998          0.3754 
       30700.00          0.4226          0.4237 
       30750.00          0.4260          0.3412 
       30800.00          0.4091          0.3325 
       30850.00          0.3972          0.3302 
       30900.00          0.4206          0.2632 
       30950.00          0.3743          0.3285 
       31000.00          0.3760          0.4405 
       31050.00          0.4597          0.5035 
       31100.00          0.4489          0.6094 
       31150.00          0.4548          0.6073 
       31200.00          0.4818          0.5881 
       31250.00          0.4722          0.6518 
       31300.00          0.4644          0.6874 
       31350.00          0.4661          0.6890 
       31400.00          0.5063          0.7404 
       31450.00          0.5264          0.7384 
       31500.00          0.4409          0.6764 
       31550.00          0.4487          0.6508 
       31600.00          0.4401          0.6143 
       31650.00          0.4589          0.6495 
       31700.00          0.4142          0.6030 
       31750.00          0.4744          0.6186 
       31800.00          0.4477          0.6097 
       31850.00          0.4494          0.6152 
       31900.00          0.4422          0.5973 
       31950.00          0.3938          0.6090 
       32000.00          0.4378          0.5354 
       32050.00          0.3962          0.4600 
       32100.00          0.3629          0.4895 
       32150.00          0.3702          0.4395 
       32200.00          0.3931          0.4909 
       32250.00          0.3967          0.5645 
       32300.00          0.3632          0.5176 
       32350.00          0.3514          0.5385 
       32400.00          0.3897          0.5757 
       32450.00          0.3292          0.5818 
       32500.00          0.3451          0.4955 
       32550.00          0.4067          0.4394 
       32600.00          0.3868          0.4185 
       32650.00          0.3864          0.4119 
       32700.00          0.4048          0.4963 
       32750.00          0.3910          0.5383 
       32800.00          0.3865          0.4728 
       32850.00          0.3747          0.4467 
       32900.00          0.3983          0.4888 
       32950.00          0.3854          0.5409 
       33000.00          0.3911          0.4191 
       33050.00          0.4147          0.3951 
       33100.00          0.3860          0.4295 
       33150.00          0.3800          0.5258 
       33200.00          0.3467          0.5115 
       33250.00          0.2956          0.5108 
       33300.00          0.3596          0.5825 
       33350.00          0.3952          0.5679 
       33400.00          0.3844          0.5460 
       33450.00          0.3562          0.4931 
       33500.00          0.3981          0.5453 
       33550.00          0.4421          0.5178 
       33600.00          0.4215          0.3791 
       33650.00          0.4320          0.3763 
       33700.00          0.4258          0.3781 
       33750.00          0.4780          0.3464 
       33800.00          0.4480          0.3228 
       33850.00          0.4821          0.2633 
       33900.00          0.4824          0.2477 
       33950.00          0.3720          0.3654 
       34000.00          0.4443          0.3913 
       34050.00          0.4382          0.3455 
       34100.00          0.3974          0.3428 
       34150.00          0.3821          0.3903 
       34200.00          0.4200          0.4358 
       34250.00          0.4098          0.4023 
       34300.00          0.3837          0.4755 
       34350.00          0.3632          0.4652 
       34400.00          0.3718          0.4239 
       34450.00          0.4110          0.4230 
       34500.00          0.4074          0.4043 
       34550.00          0.3523          0.4618 
       34600.00          0.4057          0.5297 
       34650.00          0.4399          0.6193 
       34700.00          0.4989          0.6816 
       34750.00          0.4889          0.7028 
       34800.00          0.4379          0.6093 
       34850.00          0.4184          0.5702 
       34900.00          0.4526          0.5485 
       34950.00          0.4098          0.5291 
       35000.00          0.3349          0.5172 
       35050.00          0.4260          0.5782 
       35100.00          0.3999          0.5224 
       35150.00          0.3644          0.5258 
       35200.00          0.3837          0.4992 
       35250.00          0.3981          0.5315 
       35300.00          0.3676          0.5361 
       35350.00          0.4178          0.5428 
       35400.00          0.3550          0.5084 
       35450.00          0.3724          0.4037 
       35500.00          0.3065          0.4034 
       35550.00          0.4276          0.3936 
       35600.00          0.4005          0.4069 
       35650.00          0.4151          0.4816 
       35700.00          0.3765          0.5518 
       35750.00          0.4263          0.6087 
       35800.00          0.4546          0.6501 
       35850.00          0.3879          0.5807 
       35900.00          0.4416          0.6110 
       35950.00          0.3914          0.5436 
       36000.00          0.4058          0.5349 
       36050.00          0.4468          0.6470 
       36100.00          0.4175          0.6234 
       36150.00          0.4008          0.5741 
       36200.00          0.4001          0.6206 
       36250.00          0.3810          0.6318 
       36300.00          0.4312          0.6167 
       36350.00          0.4393          0.5978 
       36400.00          0.4317          0.5856 
       36450.00          0.4455          0.5960 
       36500.00          0.4538          0.6020 
       36550.00          0.4366          0.5436 
       36600.00          0.4584          0.5761 
       36650.00          0.4405          0.5092 
       36700.00          0.4362          0.6165 
       36750.00          0.3517          0.5789 
       36800.00          0.3338          0.5563 
       36850.00          0.3398          0.5605 
       36900.00          0.3662          0.5516 
       36950.00          0.3435          0.5389 
       37000.00          0.3698          0.5568 
       37050.00          0.3855          0.5254 
       37100.00          0.3939          0.4986 
       37150.00          0.4035          0.4325 
       37200.00          0.4256          0.3470 
       37250.00          0.4292          0.3258 
       37300.00          0.4276          0.4403 
       37350.00          0.4287          0.4944 
       37400.00          0.3610          0.4620 
       37450.00          0.4010          0.5127 
       37500.00          0.3906          0.4877 
       37550.00          0.4086          0.4723 
       37600.00          0.4147          0.4423 
       37650.00          0.3288          0.4449 
       37700.00          0.3529          0.4038 
       37750.00          0.3190          0.4110 
       37800.00          0.3485          0.4278 
       37850.00          0.3958          0.3785 
       37900.00          0.3972          0.3960 
       37950.00          0.3979          0.3937 
       38000.00          0.4589          0.4674 
       38050.00          0.4514          0.5709 
       38100.00          0.4468          0.5980 
       38150.00          0.4022          0.6326 
       38200.00          0.3347          0.5534 
       38250.00          0.4127          0.3859 
       38300.00          0.3930          0.3628 
       38350.00          0.4244          0.4570 
       38400.00          0.4145          0.3691 
       38450.00          0.4280          0.4266 
       38500.00          0.4582          0.4130 
       38550.00          0.4483          0.3861 
       38600.00          0.4422          0.3821 
       38650.00          0.4523          0.4578 
       38700.00          0.4254          0.4421 
       38750.00          0.4502          0.3635 
       38800.00          0.4578          0.4217 
       38850.00          0.4719          0.5251 
       38900.00          0.4032          0.3672 
       38950.00          0.4073          0.3871 
       39000.00          0.3595          0.4826 
       39050.00          0.3622          0.4858 
       39100.00          0.3969          0.5162 
       39150.00          0.4066          0.4450 
       39200.00          0.3809          0.4821 
       39250.00          0.4307          0.5716 
       39300.00          0.4130          0.5185 
       39350.00          0.4290          0.5538 
       39400.00          0.4199          0.4822 
       39450.00          0.4079          0.4096 
       39500.00          0.3971          0.4424 
       39550.00          0.4400          0.3489 
       39600.00          0.4322          0.3491 
       39650.00          0.3400          0.4270 
       39700.00          0.3748          0.4152 
       39750.00          0.3584          0.4118 
       39800.00          0.3562          0.3723 
       39850.00          0.4151          0.3999 
       39900.00          0.4694          0.4658 
       39950.00          0.4275          0.5253 
       40000.00          0.4310          0.5066 
       40050.00          0.4208          0.5946 
       40100.00          0.4846          0.6223 
       40150.00          0.5119          0.6469 
       40200.00          0.4253          0.5962 
       40250.00          0.4533          0.6023 
       40300.00          0.4303          0.6375 
       40350.00          0.3996          0.6010 
       40400.00          0.4775          0.6351 
       40450.00          0.5099          0.6839 
       40500.00          0.4052          0.6187 
       40550.00          0.3929          0.6303 
       40600.00          0.4208          0.6409 
       40650.00          0.4174          0.5852 
       40700.00          0.4259          0.5388 
       40750.00          0.4567          0.6048 
       40800.00          0.3989          0.6147 
       40850.00          0.4782          0.6342 
       40900.00          0.5215          0.6840 
       40950.00          0.5461          0.7491 
       41000.00          0.4760          0.6823 
       41050.00          0.4698          0.6512 
       41100.00          0.4383          0.6129 
       41150.00          0.4726          0.6142 
       41200.00          0.4479          0.5923 
       41250.00          0.4577          0.6523 
       41300.00          0.4755          0.7200 
       41350.00          0.4631          0.6710 
       41400.00          0.4309          0.6401 
       41450.00          0.4706          0.6610 
       41500.00          0.4266          0.6392 
       41550.00          0.4408          0.6310 
       41600.00          0.4632          0.5548 
       41650.00          0.4164          0.5343 
       41700.00          0.4768          0.6129 
       41750.00          0.4376          0.5775 
       41800.00          0.4554          0.6514 
       41850.00          0.4947          0.7272 
       41900.00          0.4961          0.6538 
       41950.00          0.4844          0.6814 
       42000.00          0.4443          0.6625 
       42050.00          0.4680          0.6788 
       42100.00          0.4543          0.6415 
       42150.00          0.4078          0.5844 
       42200.00          0.4328          0.6142 
       42250.00          0.3781          0.5471 
       42300.00          0.4168          0.5887 
       42350.00          0.4381          0.5704 
       42400.00          0.4400          0.4867 
       42450.00          0.4095          0.5271 
       42500.00          0.3428          0.5437 
       42550.00          0.3553          0.5505 
       42600.00          0.3616          0.4354 
       42650.00          0.3667          0.4737 
       42700.00          0.3674          0.5405 
       42750.00          0.4103          0.6244 
       42800.00          0.4463          0.6729 
       42850.00          0.4570          0.6727 
       42900.00          0.4510          0.6724 
       42950.00          0.4598          0.6604 
       43000.00          0.4165          0.5614 
       43050.00          0.4160          0.5533 
       43100.00          0.3862          0.5222 
       43150.00          0.3812          0.5622 
       43200.00          0.4525          0.5799 
       43250.00          0.4243          0.5771 
       43300.00          0.3968          0.6144 
       43350.00          0.4635          0.6621 
       43400.00          0.4580          0.6338 
       43450.00          0.5030          0.6902 
       43500.00          0.4694          0.6794 
       43550.00          0.5044          0.7061 
       43600.00          0.4562          0.6310 
       43650.00          0.4779          0.6556 
       43700.00          0.4769          0.6804 
       43750.00          0.3975          0.6094 
       43800.00          0.4507          0.6534 
       43850.00          0.4893          0.6954 
       43900.00          0.4903          0.6034 
       43950.00          0.4075          0.5167 
       44000.00          0.3904          0.5475 
       44050.00          0.3537          0.5429 
       44100.00          0.4026          0.6479 
       44150.00          0.4400          0.6318 
       44200.00          0.4326          0.6582 
       44250.00          0.4625          0.6933 
       44300.00          0.4545          0.6607 
       44350.00          0.4505          0.6210 
       44400.00          0.4061          0.5406 
       44450.00          0.4118          0.5546 
       44500.00          0.4000          0.5853 
       44550.00          0.4686          0.6737 
       44600.00          0.4422          0.6056 
       44650.00          0.4488          0.5890 
       44700.00          0.4559          0.6145 
       44750.00          0.4603          0.6226 
       44800.00          0.4762          0.6859 
       44850.00          0.3995          0.5722 
       44900.00          0.4021          0.4811 
       44950.00          0.3401          0.5101 
       45000.00          0.3835          0.5088 
       45050.00          0.4005          0.5302 
       45100.00          0.4182          0.5325 
       45150.00          0.4393          0.5234 
       45200.00          0.3857          0.5779 
       45250.00          0.3569          0.5539 
       45300.00          0.4007          0.5481 
       45350.00          0.4013          0.4733 
       45400.00          0.4625          0.4825 
       45450.00          0.4092          0.4458 
       45500.00          0.4314          0.4783 
       45550.00          0.3935          0.4126 
       45600.00          0.4010          0.3382 
       45650.00          0.4340          0.3165 
       45700.00          0.4479          0.2185 
       45750.00          0.4648          0.1921 
       45800.00          0.4389          0.2510 
       45850.00          0.4269          0.2100 
       45900.00          0.4503          0.2022 
       45950.00          0.4463          0.2048 
       46000.00          0.4490          0.2257 
       46050.00          0.3557          0.3781 
       46100.00          0.3590          0.4736 
       46150.00          0.3900          0.5516 
       46200.00          0.3300          0.5080 
       46250.00          0.3159          0.4997 
       46300.00          0.3746          0.4856 
       46350.00          0.4139          0.3674 
       46400.00          0.4108          0.3550 
       46450.00          0.3958          0.3955 
       46500.00          0.3741          0.3645 
       46550.00          0.3039          0.4026 
       46600.00          0.2885          0.4836 
       46650.00          0.3519          0.4512 
       46700.00          0.3483          0.4239 
       46750.00          0.3643          0.4603 
       46800.00          0.4012          0.4749 
       46850.00          0.3884          0.4322 
       46900.00          0.3657          0.4856 
       46950.00          0.3755          0.5637 
       47000.00          0.3209          0.5815 
       47050.00          0.3462          0.5806 
       47100.00          0.3723          0.4657 
       47150.00          0.3690          0.4905 
       47200.00          0.4218          0.4366 
       47250.00          0.3819          0.4596 
       47300.00          0.3903          0.5036 
       47350.00          0.3992          0.5049 
       47400.00          0.4011          0.5202 
       47450.00          0.4322          0.6129 
       47500.00          0.3654          0.6016 
       47550.00          0.4083          0.6139 
       47600.00          0.4608          0.6681 
       47650.00          0.4432          0.6489 
       47700.00          0.4391          0.5367 
       47750.00          0.4247          0.4884 
       47800.00          0.4236          0.4406 
       47850.00          0.4205          0.4435 
       47900.00          0.3977          0.5389 
       47950.00          0.4276          0.5093 
       48000.00          0.4669          0.5331 
       48050.00          0.4281          0.5240 
       48100.00          0.4084          0.4375 
       48150.00          0.3821          0.5085 
       48200.00          0.4411          0.4939 
       48250.00          0.4630          0.5009 
       48300.00          0.4498          0.5448 
       48350.00          0.4222          0.5512 
       48400.00          0.4406          0.6605 
       48450.00          0.5059          0.7131 
       48500.00          0.4638          0.6481 
       48550.00          0.4157          0.6225 
       48600.00          0.4241          0.6553 
       48650.00          0.4660          0.6583 
       48700.00          0.4123          0.6213 
       48750.00          0.3801          0.5177 
       48800.00          0.3655          0.5033 
       48850.00          0.3491          0.4585 
       48900.00          0.3755          0.4606 
       48950.00          0.3623          0.4557 
       49000.00          0.3638          0.5696 
       49050.00          0.3956          0.5773 
       49100.00          0.3893          0.5338 
       49150.00          0.4081          0.5558 
       49200.00          0.4602          0.6080 
       49250.00          0.4975          0.7210 
       49300.00          0.4517          0.6478 
       49350.00          0.4309          0.5593 
       49400.00          0.3953          0.4940 
       49450.00          0.3823          0.5738 
       49500.00          0.3742          0.4080 
       49550.00          0.3864          0.4810 
       49600.00          0.4236          0.5714 
       49650.00          0.3922          0.5208 
       49700.00          0.4006          0.4725 
       49750.00          0.4155          0.5101 
       49800.00          0.3961          0.4690 
       49850.00          0.4344          0.6002 
       49900.00          0.4403          0.6189 
       49950.00          0.3954          0.5942 
       50000.00          0.4324          0.6048 
       50050.00          0.4094          0.5706 
       50100.00          0.4410          0.6383 
       50150.00          0.3838          0.5755 
       50200.00          0.3858          0.5548 
       50250.00          0.3810          0.5696 
       50300.00          0.3624          0.4915 
       50350.00          0.3777          0.4872 
       50400.00          0.4259          0.6127 
       50450.00          0.3669          0.5313 
       50500.00          0.3175          0.5454 
       50550.00          0.3680          0.6000 
       50600.00          0.3514          0.5503 
       50650.00          0.3748          0.6275 
       50700.00          0.3444          0.5541 
       50750.00          0.3529          0.5899 
       50800.00          0.3938          0.5407 
       50850.00          0.4269          0.5810 
       50900.00          0.4081          0.6171 
       50950.00          0.5087          0.7322 
       51000.00          0.4657          0.6628 
       51050.00          0.4916          0.6719 
       51100.00          0.4792          0.6226 
       51150.00          0.4317          0.5928 
       51200.00          0.3952          0.5971 
       51250.00          0.4307          0.6016 
       51300.00          0.3743          0.5706 
       51350.00          0.3582          0.4893 
       51400.00          0.3673          0.4693 
       51450.00          0.3507          0.5233 
       51500.00          0.3626          0.4843 
       51550.00          0.4175          0.5609 
       51600.00          0.3608          0.5399 
       51650.00          0.4141          0.6361 
       51700.00          0.4379          0.5929 
       51750.00          0.4303          0.6203 
       51800.00          0.4316          0.6241 
       51850.00          0.4105          0.6550 
       51900.00          0.4500          0.6372 
       51950.00          0.4887          0.7138 
       52000.00          0.4807          0.6749 
       52050.00          0.4858          0.7205 
       52100.00          0.4876          0.6715 
       52150.00          0.4980          0.6909 
       52200.00          0.4304          0.5975 
       52250.00          0.4314          0.5900 
       52300.00          0.4326          0.6170 
       52350.00          0.4523          0.6067 
       52400.00          0.4721          0.5770 
       52450.00          0.3911          0.5887 
       52500.00          0.3936          0.5882 
       52550.00          0.3741          0.5491 
       52600.00          0.4293          0.6339 
       52650.00          0.4488          0.6571 
       52700.00          0.4605          0.6136 
       52750.00          0.4523          0.5466 
       52800.00          0.4444          0.5311 
       52850.00          0.4298          0.5657 
       52900.00          0.4563          0.5736 
       52950.00          0.4083          0.5332 
       53000.00          0.3695          0.4879 
       53050.00          0.4107          0.4962 
       53100.00          0.3666          0.4920 
       53150.00          0.3919          0.4738 
       53200.00          0.3824          0.4587 
       53250.00          0.4013          0.4654 
       53300.00          0.3637          0.4633 
       53350.00          0.3707          0.4538 
       53400.00          0.3788          0.4903 
       53450.00          0.3670          0.5069 
       53500.00          0.3654          0.4498 
       53550.00          0.4250          0.3609 
       53600.00          0.4080          0.3932 
       53650.00          0.3948          0.3599 
       53700.00          0.4335          0.4323 
       53750.00          0.4138          0.4794 
       53800.00          0.4067          0.4390 
       53850.00          0.4270          0.4131 
       53900.00          0.4644          0.4723 
       53950.00          0.4164          0.5021 
       54000.00          0.4011          0.5456 
       54050.00          0.4410          0.5354 
       54100.00          0.4482          0.5522 
       54150.00          0.4371          0.5152 
       54200.00          0.4427          0.5881 
       54250.00          0.4344          0.4881 
       54300.00          0.3932          0.4636 
       54350.00          0.4139          0.5184 
       54400.00          0.4068          0.4863 
       54450.00          0.4182          0.5488 
       54500.00          0.4158          0.5183 
       54550.00          0.4386          0.5883 
       54600.00          0.4024          0.5998 
       54650.00          0.4540          0.6918 
       54700.00          0.4061          0.6178 
       54750.00          0.3943          0.6311 
       54800.00          0.4218          0.6499 
       54850.00          0.3677          0.5929 
       54900.00          0.3730          0.5857 
       54950.00          0.4012          0.6386 
       55000.00          0.3770          0.5553 
       55050.00          0.4294          0.6330 
       55100.00          0.4111          0.5724 
       55150.00          0.4444          0.5638 
       55200.00          0.4284          0.5593 
       55250.00          0.4607          0.5643 
       55300.00          0.4346          0.5458 
       55350.00          0.3869          0.5284 
       55400.00          0.4234          0.5747 
       55450.00          0.3781          0.5704 
       55500.00          0.3191          0.5633 
       55550.00          0.3491          0.5034 
       55600.00          0.3608          0.5479 
       55650.00          0.3522          0.5174 
       55700.00          0.4025          0.4806 
       55750.00          0.4140          0.5442 
       55800.00          0.3906          0.4867 
       55850.00          0.3556          0.5046 
       55900.00          0.3399          0.5265 
       55950.00          0.3376          0.5169 
       56000.00          0.3854          0.5713 
       56050.00          0.3584          0.5292 
       56100.00          0.3560          0.5361 
       56150.00          0.3859          0.4754 
       56200.00          0.3806          0.4346 
       56250.00          0.3952          0.3765 
       56300.00          0.3917          0.3385 
       56350.00          0.3721          0.3835 
       56400.00          0.3742          0.4356 
       56450.00          0.3627          0.4329 
       56500.00          0.3765          0.4252 
       56550.00          0.3790          0.4557 
       56600.00          0.3767          0.4728 
       56650.00          0.3639          0.5339 
       56700.00          0.3867          0.5247 
       56750.00          0.3723          0.4701 
       56800.00          0.3933          0.4310 
       56850.00          0.4132          0.3211 
       56900.00          0.4549          0.2973 
       56950.00          0.4037          0.3664 
       57000.00          0.4091          0.3816 
       57050.00          0.3645          0.4503 
       57100.00          0.3434          0.4643 
       57150.00          0.3465          0.4879 
       57200.00          0.3481          0.4756 
       57250.00          0.3476          0.4803 
       57300.00          0.3681          0.4050 
       57350.00          0.3742          0.3948 
       57400.00          0.3813          0.3703 
       57450.00          0.3702          0.3902 
       57500.00          0.4029          0.3043 
       57550.00          0.4073          0.3060 
       57600.00          0.4336          0.2921 
       57650.00          0.3615          0.4216 
       57700.00          0.4076          0.5246 
       57750.00          0.4126          0.5324 
       57800.00          0.4054          0.4355 
       57850.00          0.4128          0.3892 
       57900.00          0.3832          0.3323 
       57950.00          0.4211          0.3446 
       58000.00          0.2955          0.4211 
       58050.00          0.3033          0.3814 
       58100.00          0.4078          0.2831 
       58150.00          0.4162          0.2839 
       58200.00          0.3693          0.3696 
       58250.00          0.4131          0.3410 
       58300.00          0.4126          0.3503 
       58350.00          0.4478          0.3580 
       58400.00          0.4237          0.3336 
       58450.00          0.3770          0.3650 
       58500.00          0.3870          0.3672 
       58550.00          0.4370          0.2793 
       58600.00          0.4705          0.3031 
       58650.00          0.3906          0.4355 
       58700.00          0.3584          0.3940 
       58750.00          0.3414          0.4968 
       58800.00          0.3401          0.4859 
       58850.00          0.3160          0.4775 
       58900.00          0.3303          0.4914 
       58950.00          0.3334          0.4654 
       59000.00          0.3229          0.4757 
       59050.00          0.3336          0.4626 
       59100.00          0.3726          0.4722 
       59150.00          0.3561          0.4255 
       59200.00          0.3340          0.4077 
       59250.00          0.3373          0.3780 
       59300.00          0.3073          0.4512 
       59350.00          0.3324          0.4864 
       59400.00          0.3609          0.4697 
       59450.00          0.3073          0.4555 
       59500.00          0.3309          0.4447 
       59550.00          0.3063          0.4460 
       59600.00          0.3201          0.3915 
       59650.00          0.3382          0.4388 
       59700.00          0.3642          0.5037 
       59750.00          0.3750          0.4807 
       59800.00          0.4077          0.5622 
       59850.00          0.4072          0.5947 
       59900.00          0.4155          0.6233 
       59950.00          0.4983          0.6871 
       60000.00          0.4874          0.6895 
       60050.00          0.3784          0.5898 
       60100.00          0.3419          0.4703 
       60150.00          0.3625          0.4325 
       60200.00          0.3592          0.4210 
       60250.00          0.3282          0.3480 
       60300.00          0.3986          0.2900 
       60350.00          0.3827          0.3097 
       60400.00          0.3934          0.4307 
       60450.00          0.3610          0.4840 
       60500.00          0.3137          0.4501 
       60550.00          0.3589          0.4834 
       60600.00          0.3472          0.5228 
       60650.00          0.3507          0.4618 
       60700.00          0.3403          0.4581 
       60750.00          0.3713          0.4874 
       60800.00          0.3956          0.4105 
       60850.00          0.4192          0.4905 
       60900.00          0.3650          0.4535 
       60950.00          0.4097          0.4131 
       61000.00          0.3668          0.4260 
       61050.00          0.3853          0.4489 
       61100.00          0.3959          0.4035 
       61150.00          0.3775          0.3988 
       61200.00          0.4244          0.3929 
       61250.00          0.4021          0.4151 
       61300.00          0.3906          0.4580 
       61350.00          0.3669          0.5882 
       61400.00          0.3910          0.5819 
       61450.00          0.4284          0.4783 
       61500.00          0.4499          0.4451 
       61550.00          0.4508          0.5381 
       61600.00          0.4751          0.5377 
       61650.00          0.4499          0.6355 
       61700.00          0.4675          0.6644 
       61750.00          0.4773          0.6777 
       61800.00          0.4192          0.6367 
       61850.00          0.3854          0.5850 
       61900.00          0.4584          0.7094 
       61950.00          0.4833          0.6827 
       62000.00          0.4405          0.6483 
       62050.00          0.4080          0.5915 
       62100.00          0.4188          0.6296 
       62150.00          0.4096          0.6100 
       62200.00          0.4349          0.6297 
       62250.00          0.4397          0.6171 
       62300.00          0.4276          0.6005 
       62350.00          0.4216          0.5953 
       62400.00          0.4626          0.6876 
       62450.00          0.4189          0.6683 
       62500.00          0.4460          0.6334 
       62550.00          0.3940          0.6121 
       62600.00          0.4111          0.5966 
       62650.00          0.4695          0.6545 
       62700.00          0.4739          0.6676 
       62750.00          0.4198          0.5662 
       62800.00          0.4255          0.4757 
       62850.00          0.4570          0.4164 
       62900.00          0.4286          0.5007 
       62950.00          0.3802          0.4068 
       63000.00          0.4237          0.5334 
       63050.00          0.4289          0.4952 
       63100.00          0.4418          0.3985 
       63150.00          0.4300          0.4146 
       63200.00          0.3844          0.3910 
       63250.00          0.3850          0.4081 
       63300.00          0.3987          0.4564 
       63350.00          0.4121          0.4615 
       63400.00          0.4533          0.5305 
       63450.00          0.4061          0.5306 
       63500.00          0.4065          0.5565 
       63550.00          0.4310          0.5083 
       63600.00          0.4050          0.4537 
       63650.00          0.3751          0.5382 
       63700.00          0.4402          0.5707 
       63750.00          0.4138          0.5669 
       63800.00          0.3880          0.5355 
       63850.00          0.4013          0.5611 
       63900.00          0.3839          0.5873 
       63950.00          0.3277          0.5145 
       64000.00          0.3498          0.5121 
       64050.00          0.3876          0.4655 
       64100.00          0.3898          0.5176 
       64150.00          0.4173          0.4786 
       64200.00          0.4075          0.5430 
       64250.00          0.4085          0.5840 
       64300.00          0.4218          0.6235 
       64350.00          0.3971          0.6087 
       64400.00          0.4477          0.6665 
       64450.00          0.5194          0.6890 
       64500.00          0.4709          0.6435 
       64550.00          0.5059          0.6762 
       64600.00          0.4476          0.6596 
       64650.00          0.4566          0.6673 
       64700.00          0.5294          0.7332 
       64750.00          0.4897          0.6948 
       64800.00          0.5433          0.7514 
       64850.00          0.5104          0.6811 
       64900.00          0.4839          0.6486 
       64950.00          0.4767          0.6504 
       65000.00          0.4648          0.6329 
       65050.00          0.4503          0.6713 
       65100.00          0.4074          0.6029 
       65150.00          0.4603          0.6898 
       65200.00          0.4563          0.6692 
       65250.00          0.4962          0.6601 
       65300.00          0.4553          0.5824 
       65350.00          0.4140          0.5890 
       65400.00          0.3751          0.5901 
       65450.00          0.3822          0.6042 
       65500.00          0.2925          0.4908 
       65550.00          0.3461          0.5496 
       65600.00          0.2948          0.5455 
       65650.00          0.2910          0.5817 
       65700.00          0.2614          0.5787 
       65750.00          0.2905          0.6077 
       65800.00          0.2915          0.5720 
       65850.00          0.3014          0.5879 
       65900.00          0.3283          0.5624 
       65950.00          0.3469          0.4854 
       66000.00          0.3190          0.4640 
       66050.00          0.3617          0.4682 
       66100.00          0.3518          0.5253 
       66150.00          0.3153          0.5079 
       66200.00          0.3129          0.5417 
       66250.00          0.3508          0.5501 
       66300.00          0.3370          0.5208 
       66350.00          0.3843          0.5786 
       66400.00          0.3665          0.5604 
       66450.00          0.3553          0.5724 
       66500.00          0.3080          0.5271 
       66550.00          0.3050          0.4720 
       66600.00          0.3789          0.4896 
       66650.00          0.4263          0.4743 
       66700.00          0.3878          0.4700 
       66750.00          0.3872          0.3880 
       66800.00          0.4191          0.3343 
       66850.00          0.4366          0.3043 
       66900.00          0.3977          0.3324 
       66950.00          0.4272          0.3427 
       67000.00          0.4646          0.3284 
       67050.00          0.4290          0.3267 
       67100.00          0.3949          0.3762 
       67150.00          0.3918          0.3457 
       67200.00          0.3662          0.3396 
       67250.00          0.3897          0.4246 
       67300.00          0.3449          0.4167 
       67350.00          0.3651          0.4936 
       67400.00          0.3589          0.5130 
       67450.00          0.3874          0.4942 
       67500.00          0.3817          0.5146 
       67550.00          0.3849          0.5773 
       67600.00          0.3865          0.5530 
       67650.00          0.4710          0.6298 
       67700.00          0.4437          0.6140 
       67750.00          0.4257          0.5452 
       67800.00          0.4299          0.5827 
       67850.00          0.4131          0.5680 
       67900.00          0.4242          0.5642 
       67950.00          0.4478          0.5377 
       68000.00          0.4491          0.6255 
       68050.00          0.4573          0.6100 
       68100.00          0.4617          0.5836 
       68150.00          0.4061          0.4942 
       68200.00          0.4361          0.4386 
       68250.00          0.4570          0.4095 
       68300.00          0.4225          0.5157 
       68350.00          0.3993          0.5471 
       68400.00          0.4260          0.5878 
       68450.00          0.4339          0.5317 
       68500.00          0.4152          0.5588 
       68550.00          0.3696          0.4355 
       68600.00          0.3571          0.4127 
       68650.00          0.3521          0.4619 
       68700.00          0.3795          0.4886 
       68750.00          0.3989          0.5523 
       68800.00          0.4119          0.5307 
       68850.00          0.3493          0.3669 
       68900.00          0.4060          0.3917 
       68950.00          0.4211          0.4169 
       69000.00          0.3712          0.3865 
       69050.00          0.3738          0.3839 
       69100.00          0.3667          0.4536 
       69150.00          0.3720          0.4792 
       69200.00          0.4178          0.5743 
       69250.00          0.4382          0.4972 
       69300.00          0.4298          0.4373 
       69350.00          0.4348          0.3854 
       69400.00          0.3976          0.3331 
       69450.00          0.4353          0.3280 
       69500.00          0.4031          0.3261 
       69550.00          0.4141          0.3866 
       69600.00          0.4032          0.4005 
       69650.00          0.4109          0.3518 
       69700.00          0.4631          0.2857 
       69750.00          0.4251          0.3734 
       69800.00          0.3771          0.3589 
       69850.00          0.4270          0.4264 
       69900.00          0.4250          0.4437 
       69950.00          0.4100          0.3620 
       70000.00          0.4172          0.3095 
       70050.00          0.3618          0.3052 
       70100.00          0.3846          0.2856 
       70150.00          0.3455          0.3227 
       70200.00          0.3765          0.3896 
       70250.00          0.4101          0.5015 
       70300.00          0.3852          0.4803 
       70350.00          0.3842          0.4992 
       70400.00          0.3437          0.5423 
       70450.00          0.4487          0.6032 
       70500.00          0.3819          0.5235 
       70550.00          0.4302          0.5288 
       70600.00          0.4158          0.4767 
       70650.00          0.3810          0.4906 
       70700.00          0.3821          0.5193 
       70750.00          0.3166          0.5518 
       70800.00          0.3373          0.5506 
       70850.00          0.3653          0.5230 
       70900.00          0.3655          0.4830 
       70950.00          0.3883          0.4144 
       71000.00          0.4394          0.3941 
       71050.00          0.4690          0.3114 
       71100.00          0.4550          0.3068 
       71150.00          0.3720          0.3710 
       71200.00          0.4129          0.3196 
       71250.00          0.4267          0.3329 
       71300.00          0.3790          0.3399 
       71350.00          0.3892          0.3150 
       71400.00          0.3515          0.4758 
       71450.00          0.3797          0.5383 
       71500.00          0.3592          0.6009 
       71550.00          0.3760          0.6195 
       71600.00          0.3762          0.5812 
       71650.00          0.4122          0.6094 
       71700.00          0.4385          0.6404 
       71750.00          0.4039          0.6419 
       71800.00          0.3620          0.6211 
       71850.00          0.3719          0.6125 
       71900.00          0.3472          0.6110 
       71950.00          0.3251          0.4911 
       72000.00          0.3949          0.6415 
       72050.00          0.3866          0.5984 
       72100.00          0.3961          0.6207 
       72150.00          0.4362          0.6200 
       72200.00          0.4566          0.6575 
       72250.00          0.4119          0.6413 
       72300.00          0.4479          0.6598 
       72350.00          0.4896          0.7176 
       72400.00          0.4791          0.6410 
       72450.00          0.4560          0.6052 
       72500.00          0.4575          0.5147 
       72550.00          0.4331          0.5386 
       72600.00          0.3761          0.5399 
       72650.00          0.4224          0.5517 
       72700.00          0.4276          0.5303 
       72750.00          0.3512          0.4753 
       72800.00          0.3836          0.5282 
       72850.00          0.3984          0.5381 
       72900.00          0.4217          0.5682 
       72950.00          0.4195          0.6116 
       73000.00          0.4553          0.6404 
       73050.00          0.3730          0.5921 
       73100.00          0.4217          0.6613 
       73150.00          0.4357          0.6080 
       73200.00          0.4037          0.5869 
       73250.00          0.4821          0.6011 
       73300.00          0.4599          0.6107 
       73350.00          0.4625          0.6429 
       73400.00          0.4962          0.6599 
       73450.00          0.4589          0.5979 
       73500.00          0.4485          0.5896 
       73550.00          0.4753          0.5819 
       73600.00          0.4287          0.5826 
       73650.00          0.4722          0.5784 
       73700.00          0.4574          0.6376 
       73750.00          0.4174          0.6260 
       73800.00          0.3842          0.6052 
       73850.00          0.3712          0.6088 
       73900.00          0.3747          0.5787 
       73950.00          0.3951          0.6512 
       74000.00          0.4088          0.6057 
       74050.00          0.4307          0.6822 
       74100.00          0.3768          0.5810 
       74150.00          0.4224          0.5780 
       74200.00          0.4230          0.5511 
       74250.00          0.4009          0.5301 
       74300.00          0.4024          0.5476 
       74350.00          0.3966          0.5923 
       74400.00          0.3776          0.5807 
       74450.00          0.4463          0.5982 
       74500.00          0.4279          0.5470 
       74550.00          0.4323          0.5317 
       74600.00          0.3771          0.5219 
       74650.00          0.3689          0.5458 
       74700.00          0.3589          0.5033 
       74750.00          0.3534          0.4719 
       74800.00          0.3787          0.4612 
       74850.00          0.3323          0.5306 
       74900.00          0.3346          0.5302 
       74950.00          0.3828          0.5065 
       75000.00          0.3316          0.4721 
       75050.00          0.4140          0.5987 
       75100.00          0.3998          0.6125 
       75150.00          0.3859          0.5709 
       75200.00          0.3648          0.5462 
       75250.00          0.4212          0.5883 
       75300.00          0.4810          0.6745 
       75350.00          0.3850          0.5916 
       75400.00          0.3744          0.4603 
       75450.00          0.3900          0.3992 
       75500.00          0.4064          0.4661 
       75550.00          0.4220          0.5649 
       75600.00          0.3180          0.4716 
       75650.00          0.3303          0.4588 
       75700.00          0.3419          0.4649 
       75750.00          0.3060          0.4972 
       75800.00          0.3123          0.4766 
       75850.00          0.2847          0.4314 
       75900.00          0.3610          0.3731 
       75950.00          0.3495          0.3416 
       76000.00          0.3991          0.3318 
       76050.00          0.4020          0.4083 
       76100.00          0.3695          0.4263 
       76150.00          0.3971          0.3741 
       76200.00          0.3757          0.4269 
       76250.00          0.3920          0.4886 
       76300.00          0.4068          0.4622 
       76350.00          0.3969          0.4379 
       76400.00          0.3718          0.4801 
       76450.00          0.3837          0.5475 
       76500.00          0.4733          0.5954 
       76550.00          0.4367          0.5463 
       76600.00          0.4141          0.5914 
       76650.00          0.3620          0.5887 
       76700.00          0.3613          0.6367 
       76750.00          0.3838          0.6564 
       76800.00          0.4174          0.6663 
       76850.00          0.4671          0.6693 
       76900.00          0.4388          0.5981 
       76950.00          0.4630          0.5720 
       77000.00          0.4398          0.5197 
       77050.00          0.4543          0.5355 
       77100.00          0.4145          0.4535 
       77150.00          0.4067          0.5435 
       77200.00          0.3808          0.5752 
       77250.00          0.3576          0.5011 
       77300.00          0.3748          0.4576 
       77350.00          0.4171          0.5379 
       77400.00          0.4437          0.6664 
       77450.00          0.4107          0.6046 
       77500.00          0.4256          0.6359 
       77550.00          0.5011          0.6959 
       77600.00          0.3779          0.6265 
       77650.00          0.4238          0.6662 
       77700.00          0.3724          0.4876 
       77750.00          0.4294          0.5236 
       77800.00          0.4075          0.5446 
       77850.00          0.4011          0.5673 
       77900.00          0.3948          0.6101 
       77950.00          0.3740          0.6003 
       78000.00          0.3645          0.5466 
       78050.00          0.4219          0.5897 
       78100.00          0.4046          0.5534 
       78150.00          0.3744          0.5508 
       78200.00          0.4174          0.6140 
       78250.00          0.3227          0.5041 
       78300.00          0.3148          0.5736 
       78350.00          0.3753          0.5546 
       78400.00          0.3819          0.5408 
       78450.00          0.4293          0.5892 
       78500.00          0.4592          0.6141 
       78550.00          0.4917          0.6900 
       78600.00          0.4389          0.6656 
       78650.00          0.4071          0.6548 
       78700.00          0.4022          0.5407 
       78750.00          0.3887          0.5429 
       78800.00          0.4154          0.5983 
       78850.00          0.4516          0.6433 
       78900.00          0.4456          0.6458 
       78950.00          0.4070          0.5812 
       79000.00          0.3636          0.6099 
       79050.00          0.3303          0.5292 
       79100.00          0.3657          0.4974 
       79150.00          0.3929          0.5271 
       79200.00          0.4332          0.6202 
       79250.00          0.4410          0.6240 
       79300.00          0.3988          0.6051 
       79350.00          0.3807          0.6079 
       79400.00          0.3842          0.5638 
       79450.00          0.3413          0.5883 
       79500.00          0.4113          0.5768 
       79550.00          0.3787          0.5700 
       79600.00          0.4257          0.5538 
       79650.00          0.4331          0.6467 
       79700.00          0.4323          0.7048 
       79750.00          0.4121          0.6301 
       79800.00          0.4261          0.6166 
       79850.00          0.4173          0.5614 
       79900.00          0.4204          0.5944 
       79950.00          0.4448          0.5934 
       80000.00          0.4266          0.5815 
       80050.00          0.3904          0.5951 
       80100.00          0.3864          0.6037 
       80150.00          0.4319          0.6384 
       80200.00          0.4405          0.6832 
       80250.00          0.4737          0.7178 
       80300.00          0.4357          0.6389 
       80350.00          0.3888          0.6005 
       80400.00          0.3581          0.5886 
       80450.00          0.4317          0.6075 
       80500.00          0.4102          0.5867 
       80550.00          0.4326          0.5763 
       80600.00          0.4291          0.5864 
       80650.00          0.4342          0.6061 
       80700.00          0.4429          0.6360 
       80750.00          0.5149          0.6533 
       80800.00          0.4500          0.6148 
       80850.00          0.4566          0.6310 
       80900.00          0.4306          0.6177 
       80950.00          0.4010          0.6344 
       81000.00          0.4313          0.6357 
       81050.00          0.4132          0.5647 
       81100.00          0.4261          0.5905 
       81150.00          0.4389          0.5963 
       81200.00          0.4077          0.5035 
       81250.00          0.4122          0.4843 
       81300.00          0.4153          0.5133 
       81350.00          0.4334          0.5705 
       81400.00          0.4471          0.5828 
       81450.00          0.4051          0.6385 
       81500.00          0.4214          0.5815 
       81550.00          0.4146          0.5294 
       81600.00          0.3913          0.5106 
       81650.00          0.4369          0.4714 
       81700.00          0.4077          0.4708 
       81750.00          0.4459          0.5545 
       81800.00          0.4210          0.5617 
       81850.00          0.4632          0.5215 
       81900.00          0.4094          0.3995 
       81950.00          0.4351          0.4331 
       82000.00          0.4037          0.3997 
       82050.00          0.3864          0.4580 
       82100.00          0.4451          0.5364 
       82150.00          0.3989          0.5558 
       82200.00          0.3723          0.5058 
       82250.00          0.3927          0.4085 
       82300.00          0.4483          0.4225 
       82350.00          0.3777          0.5224 
       82400.00          0.3859          0.5327 
       82450.00          0.4081          0.5228 
       82500.00          0.3684          0.5650 
       82550.00          0.4003          0.5097 
       82600.00          0.3922          0.5002 
       82650.00          0.3572          0.5419 
       82700.00          0.3904          0.4976 
       82750.00          0.3812          0.5068 
       82800.00          0.4009          0.4338 
       82850.00          0.4318          0.3828 
       82900.00          0.4349          0.3680 
       82950.00          0.4144          0.3907 
       83000.00          0.4094          0.3218 
       83050.00          0.4120          0.3246 
       83100.00          0.4184          0.2931 
       83150.00          0.4102          0.2533 
       83200.00          0.4414          0.2328 
       83250.00          0.5167          0.2147 
       83300.00          0.4656          0.2830 
       83350.00          0.4727          0.2622 
       83400.00          0.4695          0.2961 
       83450.00          0.4646          0.3089 
       83500.00          0.4385          0.3105 
       83550.00          0.4783          0.2529 
       83600.00          0.4432          0.3115 
       83650.00          0.4203          0.3556 
       83700.00          0.3496          0.3329 
       83750.00          0.4372          0.3657 
       83800.00          0.4201          0.4147 
       83850.00          0.4157          0.3904 
       83900.00          0.3965          0.2980 
       83950.00          0.4376          0.3352 
       84000.00          0.4452          0.3706 
       84050.00          0.4226          0.3848 
       84100.00          0.3866          0.3340 
       84150.00          0.4149          0.3133 
       84200.00          0.4538          0.3559 
       84250.00          0.4303          0.4117 
       84300.00          0.4228          0.4445 
       84350.00          0.3685          0.4857 
       84400.00          0.4308          0.5092 
       84450.00          0.4120          0.5112 
       84500.00          0.4048          0.4813 
       84550.00          0.4031          0.4201 
       84600.00          0.4343          0.4487 
       84650.00          0.4125          0.4403 
       84700.00          0.4038          0.4055 
       84750.00          0.4333          0.4018 
       84800.00          0.4023          0.3788 
       84850.00          0.4296          0.4051 
       84900.00          0.3770          0.3781 
       84950.00          0.3851          0.3676 
       85000.00          0.4033          0.4279 
       85050.00          0.4289          0.3811 
       85100.00          0.4122          0.3390 
       85150.00          0.3436          0.3654 
       85200.00          0.3109          0.3899 
       85250.00          0.3021          0.3804 
       85300.00          0.3178          0.3954 
       85350.00          0.3278          0.4360 
       85400.00          0.3590          0.4780 
       85450.00          0.3636          0.4336 
       85500.00          0.4357          0.3473 
       85550.00          0.4070          0.2856 
       85600.00          0.4294          0.2844 
       85650.00          0.4362          0.3345 
       85700.00          0.4169          0.4768 
       85750.00          0.3967          0.4884 
       85800.00          0.3784          0.4056 
       85850.00          0.3287          0.3661 
       85900.00          0.3719          0.5127 
       85950.00          0.3697          0.4930 
       86000.00          0.3704          0.4627 
       86050.00          0.3966          0.4375 
       86100.00          0.4012          0.4884 
       86150.00          0.3788          0.3343 
       86200.00          0.3893          0.4444 
       86250.00          0.3778          0.4027 
       86300.00          0.3796          0.3818 
       86350.00          0.3936          0.3943 
       86400.00          0.4190          0.4121 
       86450.00          0.4192          0.4540 
       86500.00          0.4193          0.4574 
       86550.00          0.4417          0.5921 
       86600.00          0.4082          0.6337 
       86650.00          0.4389          0.5621 
       86700.00          0.4195          0.4885 
       86750.00          0.4348          0.4550 
       86800.00          0.3962          0.4604 
       86850.00          0.4419          0.5343 
       86900.00          0.4207          0.4971 
       86950.00          0.4056          0.4480 
       87000.00          0.4317          0.3801 
       87050.00          0.4545          0.3367 
       87100.00          0.4356          0.4661 
       87150.00          0.4326          0.4990 
       87200.00          0.4332          0.5696 
       87250.00          0.4022          0.5946 
       87300.00          0.3908          0.6072 
       87350.00          0.4427          0.6616 
       87400.00          0.4737          0.6685 
       87450.00          0.4164          0.6544 
       87500.00          0.4424          0.6454 
       87550.00          0.4508          0.6657 
       87600.00          0.4609          0.6652 
       87650.00          0.4931          0.6749 
       87700.00          0.4569          0.6104 
       87750.00          0.4958          0.6622 
       87800.00          0.4197          0.6125 
       87850.00          0.4704          0.6508 
       87900.00          0.4537          0.6897 
       87950.00          0.4845          0.7052 
       88000.00          0.3823          0.6168 
       88050.00          0.4254          0.5918 
       88100.00          0.3893          0.5459 
       88150.00          0.4226          0.6366 
       88200.00          0.3518          0.5622 
       88250.00          0.3995          0.6200 
       88300.00          0.4891          0.7288 
       88350.00          0.5048          0.6906 
       88400.00          0.4838          0.6512 
       88450.00          0.4541          0.5841 
       88500.00          0.4627          0.6293 
       88550.00          0.4730          0.6314 
       88600.00          0.4074          0.6342 
       88650.00          0.3829          0.5973 
       88700.00          0.4166          0.6383 
       88750.00          0.5172          0.7443 
       88800.00          0.5005          0.7133 
       88850.00          0.4397          0.6351 
       88900.00          0.3954          0.5518 
       88950.00          0.3589          0.5573 
       89000.00          0.3779          0.5566 
       89050.00          0.3816          0.5862 
       89100.00          0.3779          0.5837 
       89150.00          0.3732          0.5764 
       89200.00          0.3668          0.5590 
       89250.00          0.4097          0.4864 
       89300.00          0.4282          0.3834 
       89350.00          0.4169          0.4437 
       89400.00          0.4342          0.4262 
       89450.00          0.4017          0.4835 
       89500.00          0.4051          0.5583 
       89550.00          0.4047          0.4374 
       89600.00          0.4231          0.4859 
       89650.00          0.4377          0.5598 
       89700.00          0.4144          0.5416 
       89750.00          0.4564          0.5583 
       89800.00          0.4571          0.5888 
       89850.00          0.4066          0.4569 
       89900.00          0.4088          0.4931 
       89950.00          0.4492          0.5539 
       90000.00          0.4501          0.5837 
       90050.00          0.3909          0.5027 
       90100.00          0.4492          0.4519 
       90150.00          0.4622          0.5356 
       90200.00          0.4552          0.5707 
       90250.00          0.4370          0.5715 
       90300.00          0.4788          0.5919 
       90350.00          0.4151          0.5195 
       90400.00          0.4624          0.6095 
       90450.00          0.4550          0.5743 
       90500.00          0.4620          0.5643 
       90550.00          0.4353          0.5527 
       90600.00          0.4017          0.4619 
       90650.00          0.4568          0.4807 
       90700.00          0.4333          0.3167 
       90750.00          0.4082          0.3906 
       90800.00          0.4166          0.4728 
       90850.00          0.4310          0.5626 
       90900.00          0.4081          0.5337 
       90950.00          0.4026          0.4811 
       91000.00          0.3399          0.4659 
       91050.00          0.3438          0.4425 
       91100.00          0.3817          0.3885 
       91150.00          0.3838          0.4028 
       91200.00          0.3902          0.4428 
       91250.00          0.4115          0.4626 
       91300.00          0.3864          0.5427 
       91350.00          0.4091          0.5578 
       91400.00          0.3886          0.4426 
       91450.00          0.4134          0.5002 
       91500.00          0.4146          0.5127 
       91550.00          0.4346          0.6195 
       91600.00          0.4178          0.6172 
       91650.00          0.4187          0.6019 
       91700.00          0.3740          0.5226 
       91750.00          0.3667          0.5216 
       91800.00          0.3549          0.4474 
       91850.00          0.3765          0.4648 
       91900.00          0.3656          0.5366 
       91950.00          0.3657          0.5631 
       92000.00          0.4481          0.6450 
       92050.00          0.4174          0.6179 
       92100.00          0.3458          0.5526 
       92150.00          0.3558          0.5978 
       92200.00          0.4572          0.6492 
       92250.00          0.2881          0.5384 
       92300.00          0.3444          0.5515 
       92350.00          0.3518          0.4875 
       92400.00          0.3392          0.4595 
       92450.00          0.3864          0.5727 
       92500.00          0.4317          0.6014 
       92550.00          0.4272          0.6591 
       92600.00          0.4677          0.6621 
       92650.00          0.4461          0.6666 
       92700.00          0.3900          0.6191 
       92750.00          0.3257          0.5346 
       92800.00          0.3454          0.4989 
       92850.00          0.3674          0.4618 
       92900.00          0.3921          0.6051 
       92950.00          0.4551          0.6645 
       93000.00          0.4387          0.6048 
       93050.00          0.4248          0.6271 
       93100.00          0.3902          0.6082 
       93150.00          0.4703          0.6708 
       93200.00          0.4638          0.6186 
       93250.00          0.4329          0.6297 
       93300.00          0.3696          0.5504 
       93350.00          0.4100          0.6088 
       93400.00          0.4499          0.5987 
       93450.00          0.4071          0.4844 
       93500.00          0.3766          0.5086 
       93550.00          0.3878          0.4597 
       93600.00          0.4251          0.4178 
       93650.00          0.4381          0.4243 
       93700.00          0.4088          0.4292 
       93750.00          0.4459          0.3252 
       93800.00          0.4455          0.3180 
       93850.00          0.4368          0.2718 
       93900.00          0.4318          0.2526 
       93950.00          0.4096          0.2517 
       94000.00          0.4185          0.3189 
       94050.00          0.3822          0.3129 
       94100.00          0.3988          0.2565 
       94150.00          0.4333          0.2869 
       94200.00          0.4145          0.2660 
       94250.00          0.4257          0.2570 
       94300.00          0.4502          0.2326 
       94350.00          0.4327          0.2390 
       94400.00          0.4561          0.1827 
       94450.00          0.4459          0.2545 
       94500.00          0.4525          0.3152 
       94550.00          0.4329          0.3211 
       94600.00          0.4374          0.2898 
       94650.00          0.4092          0.3675 
       94700.00          0.4098          0.3272 
       94750.00          0.3981          0.4151 
       94800.00          0.3884          0.3442 
       94850.00          0.4030          0.3073 
       94900.00          0.3880          0.3936 
       94950.00          0.3735          0.3986 
       95000.00          0.3393          0.4747 
       95050.00          0.3590          0.4468 
       95100.00          0.4014          0.5239 
       95150.00          0.4383          0.5468 
       95200.00          0.4284          0.5925 
       95250.00          0.4161          0.4359 
       95300.00          0.4252          0.3933 
       95350.00          0.4355          0.2864 
       95400.00          0.4690          0.2800 
       95450.00          0.4523          0.3314 
       95500.00          0.3706          0.4443 
       95550.00          0.4456          0.4371 
       95600.00          0.4260          0.4184 
       95650.00          0.4183          0.4839 
       95700.00          0.4452          0.5379 
       95750.00          0.3920          0.4800 
       95800.00          0.3857          0.4101 
       95850.00          0.3405          0.4259 
       95900.00          0.3846          0.3909 
       95950.00          0.3924          0.3502 
       96000.00          0.3761          0.3516 
       96050.00          0.3725          0.3230 
       96100.00          0.3528          0.3965 
       96150.00          0.3773          0.4633 
       96200.00          0.3762          0.5300 
       96250.00          0.3667          0.5536 
       96300.00          0.4335          0.5095 
       96350.00          0.3783          0.4886 
       96400.00          0.4249          0.4833 
       96450.00          0.4456          0.5096 
       96500.00          0.4608          0.5996 
       96550.00          0.3594          0.5206 
       96600.00          0.3560          0.4875 
       96650.00          0.3459          0.4340 
       96700.00          0.3677          0.4247 
       96750.00          0.3850          0.4712 
       96800.00          0.4083          0.4157 
       96850.00          0.4224          0.4457 
       96900.00          0.3994          0.4167 
       96950.00          0.3781          0.4172 
       97000.00          0.4352          0.4210 
       97050.00          0.4560          0.4182 
       97100.00          0.4530          0.4127 
       97150.00          0.4213          0.4318 
       97200.00          0.4174          0.4454 
       97250.00          0.3735          0.4536 
       97300.00          0.3970          0.5009 
       97350.00          0.4188          0.5193 
       97400.00          0.3355          0.4552 
       97450.00          0.4001          0.5808 
       97500.00          0.3704          0.5076 
       97550.00          0.3589          0.5147 
       97600.00          0.3817          0.5369 
       97650.00          0.4149          0.4832 
       97700.00          0.4379          0.5422 
       97750.00          0.4405          0.6164 
       97800.00          0.4622          0.6492 
       97850.00          0.5035          0.6463 
       97900.00          0.4664          0.6222 
       97950.00          0.5171          0.7081 
       98000.00          0.4499          0.6020 
       98050.00          0.4676          0.5984 
       98100.00          0.4430          0.5937 
       98150.00          0.4530          0.6218 
       98200.00          0.4948          0.6721 
       98250.00          0.5035          0.6815 
       98300.00          0.4211          0.6180 
       98350.00          0.3750          0.5752 
       98400.00          0.4479          0.6842 
       98450.00          0.4552          0.6586 
       98500.00          0.4191          0.5717 
       98550.00          0.4342          0.5313 
       98600.00          0.4488          0.5177 
       98650.00          0.4400          0.5076 
       98700.00          0.4720          0.6042 
       98750.00          0.4568          0.6248 
       98800.00          0.4453          0.5965 
       98850.00          0.4034          0.5621 
       98900.00          0.4368          0.6266 
       98950.00          0.4254          0.6455 
       99000.00          0.4578          0.6809 
       99050.00          0.4850          0.6837 
       99100.00          0.4488          0.6275 
       99150.00          0.4374          0.5753 
       99200.00          0.4301          0.5702 
       99250.00          0.4809          0.6354 
       99300.00          0.5120          0.7091 
       99350.00          0.5138          0.6756 
       99400.00          0.4876          0.6895 
       99450.00          0.4493          0.6709 
       99500.00          0.4920          0.7231 
       99550.00          0.4691          0.6784 
       99600.00          0.4299          0.5945 
       99650.00          0.4541          0.6914 
       99700.00          0.4554          0.6711 
       99750.00          0.3669          0.5251 
       99800.00          0.3980          0.5251 
       99850.00          0.4107          0.5027 
       99900.00          0.4319          0.5203 
       99950.00          0.3488          0.4925 
      100000.00          0.3682          0.5027 
