@    xaxis  label "t"
@    yaxis  label "RMSD (nm)"
           0.00          0.0000          0.4517 
          50.00          0.1369          0.4063 
         100.00          0.1876          0.3842 
         150.00          0.2393          0.3974 
         200.00          0.2560          0.4202 
         250.00          0.3072          0.4099 
         300.00          0.2917          0.4139 
         350.00          0.3061          0.4132 
         400.00          0.2390          0.4044 
         450.00          0.2571          0.4533 
         500.00          0.2757          0.4246 
         550.00          0.2766          0.4539 
         600.00          0.2832          0.4939 
         650.00          0.3023          0.5258 
         700.00          0.3151          0.5264 
         750.00          0.2522          0.5135 
         800.00          0.2638          0.4857 
         850.00          0.2477          0.4586 
         900.00          0.2599          0.4522 
         950.00          0.2574          0.4600 
        1000.00          0.2026          0.4470 
        1050.00          0.2556          0.4876 
        1100.00          0.2571          0.4640 
        1150.00          0.2799          0.4595 
        1200.00          0.2535          0.4703 
        1250.00          0.2552          0.4752 
        1300.00          0.2655          0.4556 
        1350.00          0.2901          0.4482 
        1400.00          0.2767          0.4926 
        1450.00          0.2526          0.4883 
        1500.00          0.2367          0.4700 
        1550.00          0.2578          0.4669 
        1600.00          0.2388          0.4510 
        1650.00          0.2329          0.4762 
        1700.00          0.2654          0.4264 
        1750.00          0.2712          0.4289 
        1800.00          0.2834          0.4092 
        1850.00          0.2743          0.4093 
        1900.00          0.2909          0.4275 
        1950.00          0.2533          0.4469 
        2000.00          0.2710          0.4361 
        2050.00          0.2328          0.4681 
        2100.00          0.2550          0.4436 
        2150.00          0.2685          0.4150 
        2200.00          0.2474          0.4497 
        2250.00          0.2442          0.4464 
        2300.00          0.2427          0.4901 
        2350.00          0.2280          0.4721 
        2400.00          0.2672          0.4656 
        2450.00          0.2492          0.4693 
        2500.00          0.2433          0.4593 
        2550.00          0.2821          0.4253 
        2600.00          0.2954          0.3912 
        2650.00          0.2575          0.4325 
        2700.00          0.2472          0.4231 
        2750.00          0.2574          0.4642 
        2800.00          0.2111          0.4783 
        2850.00          0.2652          0.4423 
        2900.00          0.2417          0.4650 
        2950.00          0.2740          0.4461 
        3000.00          0.2919          0.3930 
        3050.00          0.2790          0.3691 
        3100.00          0.2872          0.3696 
        3150.00          0.3068          0.4073 
        3200.00          0.2710          0.4149 
        3250.00          0.3000          0.3831 
        3300.00          0.2786          0.3588 
        3350.00          0.3090          0.3781 
        3400.00          0.3094          0.3587 
        3450.00          0.2951          0.4170 
        3500.00          0.3057          0.4024 
        3550.00          0.2887          0.4019 
        3600.00          0.2680          0.4234 
        3650.00          0.2610          0.4487 
        3700.00          0.2347          0.4698 
        3750.00          0.2472          0.4379 
        3800.00          0.2496          0.4624 
        3850.00          0.2454          0.4382 
        3900.00          0.2756          0.4448 
        3950.00          0.2575          0.4421 
        4000.00          0.2546          0.4374 
        4050.00          0.2426          0.4266 
        4100.00          0.2579          0.4305 
        4150.00          0.3138          0.3989 
        4200.00          0.3631          0.4036 
        4250.00          0.4017          0.3813 
        4300.00          0.3843          0.4592 
        4350.00          0.4273          0.4248 
        4400.00          0.4069          0.4595 
        4450.00          0.3963          0.4982 
        4500.00          0.4043          0.4830 
        4550.00          0.4005          0.4873 
        4600.00          0.3648          0.5201 
        4650.00          0.4258          0.5994 
        4700.00          0.4319          0.6022 
        4750.00          0.4089          0.5358 
        4800.00          0.4122          0.5624 
        4850.00          0.4770          0.5550 
        4900.00          0.4398          0.5245 
        4950.00          0.4392          0.4779 
        5000.00          0.4153          0.4445 
        5050.00          0.4091          0.4211 
        5100.00          0.4002          0.4182 
        5150.00          0.4185          0.4067 
        5200.00          0.3811          0.4783 
        5250.00          0.4290          0.4774 
        5300.00          0.4009          0.4356 
        5350.00          0.4105          0.3438 
        5400.00          0.4343          0.3390 
        5450.00          0.4053          0.3178 
        5500.00          0.4162          0.3995 
        5550.00          0.3886          0.4493 
        5600.00          0.3712          0.4382 
        5650.00          0.3785          0.4218 
        5700.00          0.3681          0.4427 
        5750.00          0.3085          0.4785 
        5800.00          0.3387          0.5483 
        5850.00          0.3709          0.6073 
        5900.00          0.3620          0.4940 
        5950.00          0.3594          0.5825 
        6000.00          0.4032          0.6114 
        6050.00          0.4004          0.6390 
        6100.00          0.3016          0.5519 
        6150.00          0.4019          0.5240 
        6200.00          0.4078          0.3626 
        6250.00          0.3801          0.3855 
        6300.00          0.4145          0.4472 
        6350.00          0.4102          0.5305 
        6400.00          0.4561          0.5438 
        6450.00          0.4328          0.5550 
        6500.00          0.4191          0.5686 
        6550.00          0.4005          0.4284 
        6600.00          0.4134          0.2909 
        6650.00          0.4293          0.2377 
        6700.00          0.4310          0.2601 
        6750.00          0.4159          0.2355 
        6800.00          0.4021          0.4037 
        6850.00          0.3738          0.3748 
        6900.00          0.4022          0.4385 
        6950.00          0.4297          0.5684 
        7000.00          0.4210          0.5201 
        7050.00          0.4076          0.5577 
        7100.00          0.4109          0.5401 
        7150.00          0.3791          0.5509 
        7200.00          0.3220          0.5669 
        7250.00          0.3330          0.5311 
        7300.00          0.3560          0.4891 
        7350.00          0.3477          0.4926 
        7400.00          0.3839          0.4939 
        7450.00          0.4439          0.3267 
        7500.00          0.4449          0.3071 
        7550.00          0.3817          0.3959 
        7600.00          0.3929          0.4561 
        7650.00          0.4054          0.4472 
        7700.00          0.3989          0.3991 
        7750.00          0.4033          0.3633 
        7800.00          0.3905          0.4077 
        7850.00          0.3832          0.3940 
        7900.00          0.4210          0.3449 
        7950.00          0.3694          0.4041 
        8000.00          0.3567          0.3848 
        8050.00          0.3548          0.3992 
        8100.00          0.4091          0.3259 
        8150.00          0.3445          0.3764 
        8200.00          0.4142          0.3018 
        8250.00          0.3971          0.3114 
        8300.00          0.3992          0.3297 
        8350.00          0.3908          0.3283 
        8400.00          0.3747          0.3907 
        8450.00          0.3460          0.4194 
        8500.00          0.3796          0.4411 
        8550.00          0.3397          0.4726 
        8600.00          0.3212          0.5106 
        8650.00          0.3779          0.5332 
        8700.00          0.4478          0.6336 
        8750.00          0.4088          0.6130 
        8800.00          0.4348          0.6237 
        8850.00          0.3882          0.5352 
        8900.00          0.3703          0.5180 
        8950.00          0.3878          0.5369 
        9000.00          0.3828          0.5480 
        9050.00          0.4770          0.6930 
        9100.00          0.4452          0.6703 
        9150.00          0.4061          0.5975 
        9200.00          0.4473          0.5761 
        9250.00          0.3973          0.5716 
        9300.00          0.4095          0.5681 
        9350.00          0.4034          0.4390 
        9400.00          0.3987          0.3499 
        9450.00          0.4425          0.1941 
        9500.00          0.3923          0.2030 
        9550.00          0.4374          0.2490 
        9600.00          0.4299          0.3179 
        9650.00          0.4276          0.3272 
        9700.00          0.4185          0.3844 
        9750.00          0.3922          0.4308 
        9800.00          0.4405          0.4020 
        9850.00          0.4314          0.4429 
        9900.00          0.4235          0.4418 
        9950.00          0.4349          0.3910 
       10000.00          0.3950          0.3703 
       10050.00          0.3998          0.4657 
       10100.00          0.3676          0.5653 
       10150.00          0.3474          0.5223 
       10200.00          0.3797          0.5438 
       10250.00          0.3949          0.4500 
       10300.00          0.3738          0.4404 
       10350.00          0.4479          0.4861 
       10400.00          0.4085          0.4705 
       10450.00          0.4302          0.4966 
       10500.00          0.4214          0.4070 
       10550.00          0.4022          0.4659 
       10600.00          0.4259          0.5335 
       10650.00          0.4387          0.5785 
       10700.00          0.4059          0.5083 
       10750.00          0.4409          0.5193 
       10800.00          0.4645          0.4988 
       10850.00          0.4493          0.5284 
       10900.00          0.4198          0.4424 
       10950.00          0.3788          0.4997 
       11000.00          0.3790          0.4635 
       11050.00          0.4557          0.5592 
       11100.00          0.4282          0.5137 
       11150.00          0.3994          0.4897 
       11200.00          0.4220          0.4720 
       11250.00          0.4139          0.4434 
       11300.00          0.4132          0.3935 
       11350.00          0.4063          0.5358 
       11400.00          0.4340          0.5083 
       11450.00          0.3723          0.5005 
       11500.00          0.4106          0.5259 
       11550.00          0.4377          0.5843 
       11600.00          0.4296          0.5577 
       11650.00          0.4542          0.5165 
       11700.00          0.4207          0.4786 
       11750.00          0.4102          0.5294 
       11800.00          0.3767          0.5198 
       11850.00          0.3964          0.4820 
       11900.00          0.4279          0.4839 
       11950.00          0.3872          0.4996 
       12000.00          0.3642          0.5068 
       12050.00          0.3824          0.4259 
       12100.00          0.4188          0.5312 
       12150.00          0.4117          0.5188 
       12200.00          0.4355          0.5276 
       12250.00          0.3862          0.4912 
       12300.00          0.3920          0.5262 
       12350.00          0.3426          0.5041 
       12400.00          0.3603          0.4675 
       12450.00          0.3815          0.5337 
       12500.00          0.3745          0.5659 
       12550.00          0.3652          0.6131 
       12600.00          0.4352          0.6179 
       12650.00          0.3798          0.5474 
       12700.00          0.4016          0.5695 
       12750.00          0.4246          0.5911 
       12800.00          0.4399          0.5248 
       12850.00          0.4376          0.5163 
       12900.00          0.4732          0.5410 
       12950.00          0.4851          0.5851 
       13000.00          0.4683          0.6504 
       13050.00          0.4248          0.5863 
       13100.00          0.3862          0.4864 
       13150.00          0.3662          0.5119 
       13200.00          0.3906          0.5509 
       13250.00          0.3833          0.5910 
       13300.00          0.3878          0.5467 
       13350.00          0.3551          0.4896 
       13400.00          0.4089          0.4478 
       13450.00          0.4076          0.5501 
       13500.00          0.4137          0.4834 
       13550.00          0.3492          0.5005 
       13600.00          0.3624          0.5501 
       13650.00          0.3969          0.5524 
       13700.00          0.4188          0.4778 
       13750.00          0.3688          0.4200 
       13800.00          0.3981          0.4507 
       13850.00          0.3906          0.4888 
       13900.00          0.4170          0.5042 
       13950.00          0.4291          0.5022 
       14000.00          0.4492          0.5633 
       14050.00          0.3908          0.5691 
       14100.00          0.4733          0.6397 
       14150.00          0.4598          0.6292 
       14200.00          0.4864          0.6827 
       14250.00          0.4597          0.6418 
       14300.00          0.5125          0.7480 
       14350.00          0.4699          0.6868 
       14400.00          0.3990          0.6424 
       14450.00          0.4610          0.6420 
       14500.00          0.4470          0.6521 
       14550.00          0.4613          0.5131 
       14600.00          0.4237          0.5794 
       14650.00          0.4264          0.4278 
       14700.00          0.3984          0.4440 
       14750.00          0.4212          0.4272 
       14800.00          0.4302          0.3463 
       14850.00          0.4444          0.3331 
       14900.00          0.4382          0.3481 
       14950.00          0.3925          0.4011 
       15000.00          0.4307          0.4482 
       15050.00          0.4094          0.3688 
       15100.00          0.4186          0.3651 
       15150.00          0.4495          0.4955 
       15200.00          0.4230          0.5274 
       15250.00          0.4217          0.5416 
       15300.00          0.4522          0.6120 
       15350.00          0.4325          0.5534 
       15400.00          0.4061          0.5253 
       15450.00          0.4541          0.5416 
       15500.00          0.4590          0.5199 
       15550.00          0.4471          0.5507 
       15600.00          0.4183          0.5691 
       15650.00          0.4215          0.5763 
       15700.00          0.4013          0.6286 
       15750.00          0.4024          0.6470 
       15800.00          0.3960          0.5880 
       15850.00          0.4021          0.5618 
       15900.00          0.4296          0.6319 
       15950.00          0.4461          0.6120 
       16000.00          0.4719          0.6174 
       16050.00          0.4537          0.5919 
       16100.00          0.4253          0.6071 
       16150.00          0.3811          0.5913 
       16200.00          0.4183          0.6238 
       16250.00          0.3882          0.6438 
       16300.00          0.3990          0.6174 
       16350.00          0.3740          0.6110 
       16400.00          0.3973          0.6058 
       16450.00          0.3562          0.5992 
       16500.00          0.4213          0.6934 
       16550.00          0.3422          0.6247 
       16600.00          0.3769          0.5772 
       16650.00          0.3466          0.5543 
       16700.00          0.3261          0.5459 
       16750.00          0.3074          0.5323 
       16800.00          0.3379          0.5168 
       16850.00          0.3575          0.5095 
       16900.00          0.3442          0.4865 
       16950.00          0.4159          0.4823 
       17000.00          0.3552          0.4804 
       17050.00          0.3283          0.5025 
       17100.00          0.2577          0.5498 
       17150.00          0.2663          0.5051 
       17200.00          0.2687          0.5256 
       17250.00          0.2734          0.5026 
       17300.00          0.2726          0.4584 
       17350.00          0.1943          0.5372 
       17400.00          0.2629          0.5192 
       17450.00          0.2392          0.5344 
       17500.00          0.2202          0.5290 
       17550.00          0.2543          0.5004 
       17600.00          0.2760          0.4962 
       17650.00          0.2555          0.5056 
       17700.00          0.2413          0.5025 
       17750.00          0.2415          0.5097 
       17800.00          0.2342          0.5033 
       17850.00          0.2552          0.5039 
       17900.00          0.2216          0.5771 
       17950.00          0.2788          0.5180 
       18000.00          0.2924          0.5692 
       18050.00          0.2527          0.5336 
       18100.00          0.2816          0.5843 
       18150.00          0.3099          0.5571 
       18200.00          0.2887          0.5767 
       18250.00          0.3069          0.5899 
       18300.00          0.2920          0.5360 
       18350.00          0.3237          0.5211 
       18400.00          0.3451          0.5470 
       18450.00          0.3410          0.5406 
       18500.00          0.3750          0.5316 
       18550.00          0.3333          0.5734 
       18600.00          0.3284          0.5486 
       18650.00          0.3498          0.5397 
       18700.00          0.3238          0.5226 
       18750.00          0.3460          0.4923 
       18800.00          0.3200          0.5441 
       18850.00          0.3243          0.5011 
       18900.00          0.3462          0.4813 
       18950.00          0.3675          0.4456 
       19000.00          0.3286          0.5296 
       19050.00          0.3121          0.5172 
       19100.00          0.3201          0.5479 
       19150.00          0.2903          0.5177 
       19200.00          0.2695          0.5111 
       19250.00          0.3017          0.5405 
       19300.00          0.3261          0.5154 
       19350.00          0.3150          0.5693 
       19400.00          0.2981          0.5648 
       19450.00          0.2989          0.5364 
       19500.00          0.2974          0.5088 
       19550.00          0.2616          0.4694 
       19600.00          0.2504          0.4351 
       19650.00          0.2320          0.4609 
       19700.00          0.3006          0.4762 
       19750.00          0.3215          0.4886 
       19800.00          0.2952          0.4521 
       19850.00          0.2878          0.4241 
       19900.00          0.2563          0.4670 
       19950.00          0.2678          0.5022 
       20000.00          0.2360          0.5600 
       20050.00          0.2643          0.5588 
       20100.00          0.2842          0.5601 
       20150.00          0.2388          0.5613 
       20200.00          0.2385          0.5783 
       20250.00          0.2362          0.5150 
       20300.00          0.2588          0.5021 
       20350.00          0.2721          0.4690 
       20400.00          0.2238          0.4845 
       20450.00          0.2648          0.4903 
       20500.00          0.2008          0.5760 
       20550.00          0.1915          0.5715 
       20600.00          0.2124          0.5279 
       20650.00          0.2212          0.5482 
       20700.00          0.2547          0.5336 
       20750.00          0.2820          0.5999 
       20800.00          0.3310          0.5074 
       20850.00          0.3251          0.4866 
       20900.00          0.3453          0.4709 
       20950.00          0.3573          0.4994 
       21000.00          0.3837          0.4980 
       21050.00          0.3734          0.4076 
       21100.00          0.3628          0.3980 
       21150.00          0.4312          0.3668 
       21200.00          0.4387          0.3115 
       21250.00          0.4054          0.2832 
       21300.00          0.4029          0.2708 
       21350.00          0.4095          0.2803 
       21400.00          0.4245          0.3487 
       21450.00          0.3953          0.4369 
       21500.00          0.3740          0.4413 
       21550.00          0.3510          0.4697 
       21600.00          0.3860          0.3754 
       21650.00          0.3637          0.3798 
       21700.00          0.4392          0.4365 
       21750.00          0.4026          0.4885 
       21800.00          0.3842          0.5244 
       21850.00          0.4174          0.4514 
       21900.00          0.4366          0.5013 
       21950.00          0.3756          0.4575 
       22000.00          0.4254          0.5746 
       22050.00          0.3866          0.5028 
       22100.00          0.4288          0.5869 
       22150.00          0.4287          0.5514 
       22200.00          0.4028          0.4739 
       22250.00          0.4231          0.5251 
       22300.00          0.4297          0.4666 
       22350.00          0.4098          0.4635 
       22400.00          0.4324          0.4564 
       22450.00          0.3829          0.4890 
       22500.00          0.3800          0.4971 
       22550.00          0.3918          0.4353 
       22600.00          0.3784          0.4752 
       22650.00          0.4206          0.4902 
       22700.00          0.4194          0.5483 
       22750.00          0.3988          0.5532 
       22800.00          0.3920          0.5047 
       22850.00          0.4182          0.5530 
       22900.00          0.3585          0.4956 
       22950.00          0.4339          0.5778 
       23000.00          0.4022          0.5391 
       23050.00          0.4062          0.6362 
       23100.00          0.4114          0.5965 
       23150.00          0.3412          0.5785 
       23200.00          0.3331          0.4964 
       23250.00          0.2918          0.5054 
       23300.00          0.3665          0.5185 
       23350.00          0.3788          0.5046 
       23400.00          0.3000          0.4646 
       23450.00          0.3996          0.4607 
       23500.00          0.3884          0.3518 
       23550.00          0.3826          0.3615 
       23600.00          0.4038          0.3362 
       23650.00          0.4076          0.3735 
       23700.00          0.4382          0.2813 
       23750.00          0.4125          0.2716 
       23800.00          0.4514          0.2811 
       23850.00          0.4350          0.2736 
       23900.00          0.4746          0.3266 
       23950.00          0.4566          0.2765 
       24000.00          0.4723          0.3404 
       24050.00          0.4682          0.3389 
       24100.00          0.4511          0.3048 
       24150.00          0.4722          0.3040 
       24200.00          0.4445          0.2604 
       24250.00          0.3978          0.2858 
       24300.00          0.4086          0.3063 
       24350.00          0.4003          0.2597 
       24400.00          0.4238          0.3094 
       24450.00          0.3963          0.3241 
       24500.00          0.3572          0.3991 
       24550.00          0.2203          0.4155 
       24600.00          0.3119          0.4134 
       24650.00          0.3170          0.3788 
       24700.00          0.3615          0.4093 
       24750.00          0.3883          0.3466 
       24800.00          0.3995          0.3728 
       24850.00          0.3943          0.4465 
       24900.00          0.3983          0.4495 
       24950.00          0.4222          0.5634 
       25000.00          0.4146          0.5498 
       25050.00          0.4428          0.5978 
       25100.00          0.4576          0.6472 
       25150.00          0.4002          0.6018 
       25200.00          0.4332          0.6579 
       25250.00          0.4658          0.6182 
       25300.00          0.3971          0.5462 
       25350.00          0.4097          0.4462 
       25400.00          0.3762          0.4897 
       25450.00          0.4141          0.5296 
       25500.00          0.4002          0.6245 
       25550.00          0.3805          0.5994 
       25600.00          0.4166          0.5408 
       25650.00          0.4101          0.5052 
       25700.00          0.3957          0.6084 
       25750.00          0.3782          0.5794 
       25800.00          0.4086          0.5814 
       25850.00          0.3785          0.5414 
       25900.00          0.3767          0.5678 
       25950.00          0.4184          0.6067 
       26000.00          0.4358          0.5864 
       26050.00          0.4167          0.4917 
       26100.00          0.4383          0.4560 
       26150.00          0.4032          0.4153 
       26200.00          0.3334          0.3661 
       26250.00          0.4495          0.3694 
       26300.00          0.4586          0.3260 
       26350.00          0.4411          0.3530 
       26400.00          0.4286          0.4058 
       26450.00          0.3749          0.4292 
       26500.00          0.4070          0.4722 
       26550.00          0.3812          0.4569 
       26600.00          0.4109          0.4619 
       26650.00          0.4075          0.4252 
       26700.00          0.3863          0.3957 
       26750.00          0.3925          0.3997 
       26800.00          0.4324          0.4285 
       26850.00          0.4319          0.4406 
       26900.00          0.4006          0.5105 
       26950.00          0.4104          0.5064 
       27000.00          0.4105          0.5473 
       27050.00          0.4159          0.4308 
       27100.00          0.3888          0.3861 
       27150.00          0.4189          0.4955 
       27200.00          0.4470          0.5498 
       27250.00          0.4032          0.5389 
       27300.00          0.4682          0.5953 
       27350.00          0.4758          0.6139 
       27400.00          0.4217          0.5545 
       27450.00          0.4813          0.6650 
       27500.00          0.4753          0.6549 
       27550.00          0.4293          0.5041 
       27600.00          0.4606          0.5416 
       27650.00          0.4498          0.4922 
       27700.00          0.4052          0.4514 
       27750.00          0.4217          0.4516 
       27800.00          0.4268          0.5016 
       27850.00          0.4213          0.4822 
       27900.00          0.4113          0.4414 
       27950.00          0.3704          0.4337 
       28000.00          0.4202          0.4681 
       28050.00          0.3984          0.5332 
       28100.00          0.4021          0.5760 
       28150.00          0.3961          0.6294 
       28200.00          0.4254          0.6561 
       28250.00          0.3905          0.6151 
       28300.00          0.4068          0.5151 
       28350.00          0.3980          0.5511 
       28400.00          0.3902          0.4621 
       28450.00          0.4212          0.4153 
       28500.00          0.4386          0.3905 
       28550.00          0.4447          0.4053 
       28600.00          0.4225          0.3633 
       28650.00          0.4201          0.4245 
       28700.00          0.4118          0.3999 
       28750.00          0.3910          0.4019 
       28800.00          0.3929          0.3597 
       28850.00          0.3796          0.3938 
       28900.00          0.3805          0.3870 
       28950.00          0.3591          0.4890 
       29000.00          0.3579          0.5201 
       29050.00          0.3920          0.4571 
       29100.00          0.4415          0.3864 
       29150.00          0.4407          0.3826 
       29200.00          0.4219          0.4209 
       29250.00          0.4255          0.3961 
       29300.00          0.3980          0.4700 
       29350.00          0.3626          0.4543 
       29400.00          0.3955          0.4751 
       29450.00          0.3831          0.5173 
       29500.00          0.4171          0.4904 
       29550.00          0.4388          0.4736 
       29600.00          0.3987          0.4459 
       29650.00          0.4380          0.4309 
       29700.00          0.3625          0.4525 
       29750.00          0.3368          0.4125 
       29800.00          0.3367          0.3729 
       29850.00          0.3321          0.4338 
       29900.00          0.2885          0.4097 
       29950.00          0.3224          0.3630 
       30000.00          0.3372          0.3664 
       30050.00          0.3595          0.3995 
       30100.00          0.3918          0.4629 
       30150.00          0.3500          0.3435 
       30200.00          0.3781          0.3983 
       30250.00          0.4167          0.3639 
       30300.00          0.3935          0.4257 
       30350.00          0.4231          0.4283 
       30400.00          0.4013          0.4213 
       30450.00          0.4398          0.4364 
       30500.00          0.4954          0.3245 
       30550.00          0.4765          0.3809 
       30600.00          0.4345          0.3794 
       30650.00          0.4493          0.3181 
       30700.00          0.4058          0.4304 
       30750.00          0.4092          0.4351 
       30800.00          0.4304          0.4652 
       30850.00          0.4293          0.3452 
       30900.00          0.4153          0.3405 
       30950.00          0.4131          0.2456 
       31000.00          0.3887          0.3161 
       31050.00          0.3690          0.4862 
       31100.00          0.4087          0.4673 
       31150.00          0.3919          0.5543 
       31200.00          0.4039          0.5434 
       31250.00          0.4510          0.5250 
       31300.00          0.4692          0.5315 
       31350.00          0.4720          0.6111 
       31400.00          0.4871          0.6509 
       31450.00          0.4400          0.6179 
       31500.00          0.4924          0.6990 
       31550.00          0.5259          0.6947 
       31600.00          0.4504          0.6688 
       31650.00          0.4766          0.6586 
       31700.00          0.4667          0.6370 
       31750.00          0.4329          0.5725 
       31800.00          0.4276          0.6208 
       31850.00          0.4191          0.5825 
       31900.00          0.4549          0.5783 
       31950.00          0.4071          0.4740 
       32000.00          0.4447          0.5881 
       32050.00          0.4529          0.6536 
       32100.00          0.4266          0.6217 
       32150.00          0.4526          0.5435 
       32200.00          0.4372          0.5209 
       32250.00          0.4475          0.5205 
       32300.00          0.4428          0.5590 
       32350.00          0.3995          0.5551 
       32400.00          0.4052          0.5484 
       32450.00          0.4204          0.5572 
       32500.00          0.4547          0.5509 
       32550.00          0.4371          0.5703 
       32600.00          0.4477          0.5458 
       32650.00          0.4303          0.5680 
       32700.00          0.4099          0.5508 
       32750.00          0.4045          0.4824 
       32800.00          0.3952          0.5512 
       32850.00          0.3624          0.5350 
       32900.00          0.4304          0.6088 
       32950.00          0.4421          0.6248 
       33000.00          0.4509          0.6633 
       33050.00          0.4269          0.6631 
       33100.00          0.4485          0.6812 
       33150.00          0.3753          0.5708 
       33200.00          0.4134          0.5269 
       33250.00          0.4129          0.5598 
       33300.00          0.4178          0.4790 
       33350.00          0.3992          0.3906 
       33400.00          0.4007          0.4761 
       33450.00          0.3972          0.5902 
       33500.00          0.4537          0.5764 
       33550.00          0.4395          0.5534 
       33600.00          0.3907          0.5281 
       33650.00          0.3445          0.5322 
       33700.00          0.3901          0.5798 
       33750.00          0.4078          0.5661 
       33800.00          0.4132          0.6063 
       33850.00          0.4535          0.6469 
       33900.00          0.4542          0.6442 
       33950.00          0.4607          0.6567 
       34000.00          0.4150          0.6320 
       34050.00          0.4092          0.5731 
       34100.00          0.4493          0.6536 
       34150.00          0.3921          0.6114 
       34200.00          0.3902          0.5896 
       34250.00          0.4151          0.5983 
       34300.00          0.4214          0.6290 
       34350.00          0.4318          0.5915 
       34400.00          0.4393          0.5743 
       34450.00          0.4211          0.5265 
       34500.00          0.4702          0.4993 
       34550.00          0.4212          0.5470 
       34600.00          0.3851          0.5983 
       34650.00          0.3991          0.5645 
       34700.00          0.3943          0.5990 
       34750.00          0.3638          0.6075 
       34800.00          0.3957          0.6310 
       34850.00          0.4442          0.6534 
       34900.00          0.4213          0.6043 
       34950.00          0.3988          0.5867 
       35000.00          0.4257          0.5095 
       35050.00          0.3875          0.4991 
       35100.00          0.4115          0.5713 
       35150.00          0.4666          0.6483 
       35200.00          0.4638          0.6354 
       35250.00          0.4251          0.6511 
       35300.00          0.3736          0.5215 
       35350.00          0.3840          0.4789 
       35400.00          0.4233          0.5566 
       35450.00          0.3566          0.5196 
       35500.00          0.3575          0.4829 
       35550.00          0.3977          0.4978 
       35600.00          0.3819          0.4567 
       35650.00          0.4258          0.4243 
       35700.00          0.3951          0.4090 
       35750.00          0.3856          0.4489 
       35800.00          0.3855          0.4343 
       35850.00          0.3640          0.4411 
       35900.00          0.3795          0.4157 
       35950.00          0.3948          0.3593 
       36000.00          0.4239          0.4521 
       36050.00          0.4117          0.4723 
       36100.00          0.4027          0.3925 
       36150.00          0.3885          0.4336 
       36200.00          0.4000          0.4710 
       36250.00          0.3667          0.5668 
       36300.00          0.3498          0.4855 
       36350.00          0.3727          0.5092 
       36400.00          0.3994          0.6094 
       36450.00          0.3758          0.5958 
       36500.00          0.4095          0.5612 
       36550.00          0.4392          0.5977 
       36600.00          0.3662          0.5275 
       36650.00          0.3643          0.5719 
       36700.00          0.3360          0.5408 
       36750.00          0.3544          0.5779 
       36800.00          0.4078          0.6146 
       36850.00          0.4194          0.5828 
       36900.00          0.3860          0.5198 
       36950.00          0.3825          0.5362 
       37000.00          0.4047          0.5901 
       37050.00          0.3717          0.5334 
       37100.00          0.3805          0.5295 
       37150.00          0.3680          0.5019 
       37200.00          0.3902          0.5220 
       37250.00          0.3836          0.4647 
       37300.00          0.3831          0.4062 
       37350.00          0.3658          0.5005 
       37400.00          0.3958          0.3969 
       37450.00          0.3762          0.3976 
       37500.00          0.3825          0.4401 
       37550.00          0.3882          0.4213 
       37600.00          0.3627          0.4391 
       37650.00          0.4403          0.4802 
       37700.00          0.4552          0.4161 
       37750.00          0.4324          0.4295 
       37800.00          0.4287          0.4725 
       37850.00          0.4097          0.5228 
       37900.00          0.3671          0.5863 
       37950.00          0.4352          0.6462 
       38000.00          0.4928          0.6801 
       38050.00          0.4920          0.6631 
       38100.00          0.4666          0.5891 
       38150.00          0.4462          0.6008 
       38200.00          0.4188          0.6021 
       38250.00          0.4161          0.5926 
       38300.00          0.3705          0.5767 
       38350.00          0.3276          0.5886 
       38400.00          0.2737          0.5322 
       38450.00          0.2950          0.5187 
       38500.00          0.3628          0.5147 
       38550.00          0.4072          0.6269 
       38600.00          0.4469          0.6128 
       38650.00          0.4695          0.6689 
       38700.00          0.4538          0.6556 
       38750.00          0.4462          0.6703 
       38800.00          0.4195          0.6044 
       38850.00          0.3971          0.5523 
       38900.00          0.3531          0.4116 
       38950.00          0.3713          0.3964 
       39000.00          0.4348          0.2978 
       39050.00          0.4038          0.3263 
       39100.00          0.4317          0.3588 
       39150.00          0.3864          0.3779 
       39200.00          0.3721          0.4304 
       39250.00          0.4117          0.3760 
       39300.00          0.4380          0.3224 
       39350.00          0.4318          0.2449 
       39400.00          0.4520          0.2514 
       39450.00          0.4030          0.3297 
       39500.00          0.3880          0.3171 
       39550.00          0.3790          0.3913 
       39600.00          0.4021          0.4438 
       39650.00          0.4155          0.5285 
       39700.00          0.4058          0.5928 
       39750.00          0.4279          0.5575 
       39800.00          0.4182          0.5280 
       39850.00          0.4450          0.5679 
       39900.00          0.4438          0.5631 
       39950.00          0.4451          0.5606 
       40000.00          0.4618          0.5829 
       40050.00          0.4564          0.5677 
       40100.00          0.4252          0.6408 
       40150.00          0.4471          0.6480 
       40200.00          0.4566          0.6187 
       40250.00          0.4461          0.5712 
       40300.00          0.4130          0.4413 
       40350.00          0.4254          0.5330 
       40400.00          0.3836          0.4998 
       40450.00          0.3991          0.5387 
       40500.00          0.3518          0.4855 
       40550.00          0.3552          0.5332 
       40600.00          0.3701          0.5352 
       40650.00          0.3588          0.5360 
       40700.00          0.3484          0.5417 
       40750.00          0.3454          0.4590 
       40800.00          0.3288          0.5194 
       40850.00          0.2494          0.4747 
       40900.00          0.3225          0.5629 
       40950.00          0.3338          0.5508 
       41000.00          0.4170          0.5181 
       41050.00          0.3828          0.5411 
       41100.00          0.4224          0.5414 
       41150.00          0.4212          0.5768 
       41200.00          0.4539          0.6324 
       41250.00          0.4880          0.7003 
       41300.00          0.4916          0.6913 
       41350.00          0.5071          0.7311 
       41400.00          0.4708          0.6965 
       41450.00          0.3717          0.5563 
       41500.00          0.3938          0.4848 
       41550.00          0.4086          0.4898 
       41600.00          0.3876          0.4766 
       41650.00          0.4013          0.4448 
       41700.00          0.4493          0.4888 
       41750.00          0.3950          0.4450 
       41800.00          0.4167          0.3912 
       41850.00          0.4025          0.4574 
       41900.00          0.3959          0.5142 
       41950.00          0.4161          0.4393 
       42000.00          0.4276          0.3643 
       42050.00          0.3966          0.3407 
       42100.00          0.3722          0.3907 
       42150.00          0.3852          0.3890 
       42200.00          0.4584          0.3763 
       42250.00          0.4522          0.3669 
       42300.00          0.4261          0.3290 
       42350.00          0.4676          0.3182 
       42400.00          0.4553          0.3116 
       42450.00          0.4289          0.4932 
       42500.00          0.3858          0.5508 
       42550.00          0.3935          0.5336 
       42600.00          0.3883          0.4646 
       42650.00          0.3891          0.5399 
       42700.00          0.3617          0.4961 
       42750.00          0.2897          0.4101 
       42800.00          0.3120          0.4211 
       42850.00          0.2938          0.4036 
       42900.00          0.3311          0.4131 
       42950.00          0.3260          0.3920 
       43000.00          0.3151          0.3836 
       43050.00          0.3700          0.3102 
       43100.00          0.3467          0.3289 
       43150.00          0.3064          0.3825 
       43200.00          0.2975          0.3839 
       43250.00          0.3490          0.3506 
       43300.00          0.3063          0.3627 
       43350.00          0.3269          0.3873 
       43400.00          0.3200          0.4143 
       43450.00          0.3049          0.4412 
       43500.00          0.3058          0.4224 
       43550.00          0.3128          0.4342 
       43600.00          0.3113          0.4217 
       43650.00          0.3085          0.4038 
       43700.00          0.3205          0.4037 
       43750.00          0.2980          0.4056 
       43800.00          0.3341          0.3431 
       43850.00          0.3403          0.3618 
       43900.00          0.3397          0.2965 
       43950.00          0.3201          0.3115 
       44000.00          0.3620          0.3037 
       44050.00          0.3295          0.3305 
       44100.00          0.3563          0.3064 
       44150.00          0.2935          0.3752 
       44200.00          0.2439          0.4220 
       44250.00          0.2505          0.4487 
       44300.00          0.3165          0.4930 
       44350.00          0.3377          0.4189 
       44400.00          0.3105          0.3754 
       44450.00          0.2767          0.4371 
       44500.00          0.2898          0.4394 
       44550.00          0.3345          0.4400 
       44600.00          0.3090          0.4092 
       44650.00          0.3024          0.4391 
       44700.00          0.3342          0.4589 
       44750.00          0.3152          0.4106 
       44800.00          0.3399          0.4253 
       44850.00          0.3183          0.4078 
       44900.00          0.3466          0.4276 
       44950.00          0.3168          0.4012 
       45000.00          0.3440          0.4118 
       45050.00          0.3152          0.4273 
       45100.00          0.3418          0.3823 
       45150.00          0.2729          0.4882 
       45200.00          0.3063          0.5063 
       45250.00          0.3139          0.5182 
       45300.00          0.3546          0.4880 
       45350.00          0.3691          0.3861 
       45400.00          0.3171          0.4088 
       45450.00          0.2609          0.3977 
       45500.00          0.2320          0.4058 
       45550.00          0.2559          0.3506 
       45600.00          0.2040          0.3853 
       45650.00          0.2886          0.3210 
       45700.00          0.3262          0.3572 
       45750.00          0.2664          0.3511 
       45800.00          0.2634          0.3459 
       45850.00          0.2931          0.4156 
       45900.00          0.3202          0.4644 
       45950.00          0.2903          0.4277 
       46000.00          0.3162          0.4755 
       46050.00          0.3422          0.4439 
       46100.00          0.3512          0.4117 
       46150.00          0.3305          0.3814 
       46200.00          0.3154          0.4113 
       46250.00          0.3313          0.4076 
       46300.00          0.3569          0.3558 
       46350.00          0.3812          0.3799 
       46400.00          0.3428          0.4214 
       46450.00          0.3657          0.4160 
       46500.00          0.3410          0.3548 
       46550.00          0.3690          0.3352 
       46600.00          0.3108          0.3910 
       46650.00          0.3264          0.3911 
       46700.00          0.2762          0.4210 
       46750.00          0.3469          0.3994 
       46800.00          0.2668          0.4230 
       46850.00          0.2986          0.5263 
       46900.00          0.3219          0.4685 
       46950.00          0.3367          0.4173 
       47000.00          0.3558          0.4640 
       47050.00          0.4269          0.3234 
       47100.00          0.4478          0.2824 
       47150.00          0.4188          0.3364 
       47200.00          0.3687          0.3632 
       47250.00          0.4142          0.3410 
       47300.00          0.4353          0.3686 
       47350.00          0.4424          0.2643 
       47400.00          0.4367          0.3306 
       47450.00          0.4445          0.3333 
       47500.00          0.4629          0.3375 
       47550.00          0.3781          0.3512 
       47600.00          0.4479          0.3032 
       47650.00          0.4412          0.3167 
       47700.00          0.4385          0.3995 
       47750.00          0.4232          0.3885 
       47800.00          0.4271          0.4611 
       47850.00          0.3909          0.4928 
       47900.00          0.3465          0.4907 
       47950.00          0.4087          0.5086 
       48000.00          0.3750          0.4708 
       48050.00          0.3876          0.4769 
       48100.00          0.4103          0.4778 
       48150.00          0.4418          0.5624 
       48200.00          0.4273          0.6258 
       48250.00          0.4566          0.6937 
       48300.00          0.4943          0.7184 
       48350.00          0.4146          0.6088 
       48400.00          0.4565          0.6155 
       48450.00          0.4158          0.5428 
       48500.00          0.4265          0.5360 
       48550.00          0.4146          0.5007 
       48600.00          0.4142          0.4272 
       48650.00          0.4143          0.4772 
       48700.00          0.4097          0.4806 
       48750.00          0.4417          0.5961 
       48800.00          0.4220          0.5654 
       48850.00          0.3772          0.5474 
       48900.00          0.4142          0.6164 
       48950.00          0.4344          0.5859 
       49000.00          0.4223          0.4567 
       49050.00          0.4085          0.5444 
       49100.00          0.4377          0.5984 
       49150.00          0.4081          0.6327 
       49200.00          0.4352          0.6471 
       49250.00          0.4882          0.6919 
       49300.00          0.4584          0.6524 
       49350.00          0.4578          0.6408 
       49400.00          0.5150          0.7092 
       49450.00          0.4456          0.6517 
       49500.00          0.3780          0.5985 
       49550.00          0.3814          0.6372 
       49600.00          0.4217          0.6476 
       49650.00          0.4474          0.6229 
       49700.00          0.3955          0.5508 
       49750.00          0.4166          0.6131 
       49800.00          0.3833          0.5145 
       49850.00          0.4326          0.5291 
       49900.00          0.4185          0.4861 
       49950.00          0.4352          0.5946 
       50000.00          0.4536          0.6754 
       50050.00          0.4907          0.7182 
       50100.00          0.4592          0.6975 
       50150.00          0.4618          0.6746 
       50200.00          0.4830          0.6566 
       50250.00          0.4559          0.6218 
       50300.00          0.5057          0.7084 
       50350.00          0.4480          0.6767 
       50400.00          0.3954          0.6023 
       50450.00          0.3464          0.4929 
       50500.00          0.3337          0.5524 
       50550.00          0.4143          0.5785 
       50600.00          0.4209          0.5739 
       50650.00          0.5054          0.6310 
       50700.00          0.4607          0.5277 
       50750.00          0.4955          0.6514 
       50800.00          0.4362          0.6377 
       50850.00          0.4986          0.7258 
       50900.00          0.5208          0.7115 
       50950.00          0.5285          0.7216 
       51000.00          0.4987          0.7291 
       51050.00          0.4767          0.7062 
       51100.00          0.4836          0.7132 
       51150.00          0.5006          0.6909 
       51200.00          0.4797          0.6377 
       51250.00          0.4403          0.5892 
       51300.00          0.4957          0.6886 
       51350.00          0.4709          0.6541 
       51400.00          0.4105          0.6129 
       51450.00          0.4015          0.6025 
       51500.00          0.4674          0.6754 
       51550.00          0.4673          0.6741 
       51600.00          0.4580          0.6343 
       51650.00          0.4700          0.5797 
       51700.00          0.4398          0.5557 
       51750.00          0.3719          0.5145 
       51800.00          0.4023          0.5371 
       51850.00          0.3788          0.5221 
       51900.00          0.4382          0.4917 
       51950.00          0.4246          0.5199 
       52000.00          0.4742          0.5931 
       52050.00          0.4894          0.6092 
       52100.00          0.4232          0.4822 
       52150.00          0.4527          0.5288 
       52200.00          0.4202          0.5281 
       52250.00          0.4374          0.4344 
       52300.00          0.4056          0.5462 
       52350.00          0.3982          0.6070 
       52400.00          0.4235          0.5872 
       52450.00          0.4326          0.5989 
       52500.00          0.4680          0.6843 
       52550.00          0.4228          0.6201 
       52600.00          0.4315          0.6148 
       52650.00          0.4660          0.6509 
       52700.00          0.4389          0.5986 
       52750.00          0.4672          0.7058 
       52800.00          0.4469          0.6665 
       52850.00          0.4591          0.6477 
       52900.00          0.4613          0.6645 
       52950.00          0.4656          0.6871 
       53000.00          0.4143          0.5800 
       53050.00          0.3859          0.5042 
       53100.00          0.4337          0.4939 
       53150.00          0.4532          0.6081 
       53200.00          0.4190          0.6041 
       53250.00          0.3631          0.5305 
       53300.00          0.3616          0.4683 
       53350.00          0.3884          0.5112 
       53400.00          0.4657          0.6343 
       53450.00          0.4880          0.6516 
       53500.00          0.4696          0.5615 
       53550.00          0.4566          0.5182 
       53600.00          0.4453          0.5703 
       53650.00          0.5108          0.6595 
       53700.00          0.4668          0.6284 
       53750.00          0.3822          0.5531 
       53800.00          0.3461          0.5424 
       53850.00          0.4316          0.5514 
       53900.00          0.3844          0.5808 
       53950.00          0.4234          0.6382 
       54000.00          0.4429          0.6177 
       54050.00          0.4984          0.7230 
       54100.00          0.4974          0.6926 
       54150.00          0.3641          0.5557 
       54200.00          0.4321          0.6294 
       54250.00          0.4438          0.6241 
       54300.00          0.4773          0.6369 
       54350.00          0.4673          0.6252 
       54400.00          0.4925          0.6236 
       54450.00          0.4344          0.6037 
       54500.00          0.3894          0.5721 
       54550.00          0.3270          0.5022 
       54600.00          0.4202          0.5122 
       54650.00          0.4028          0.4173 
       54700.00          0.4051          0.3975 
       54750.00          0.3866          0.3724 
       54800.00          0.3460          0.4622 
       54850.00          0.3371          0.4562 
       54900.00          0.3133          0.4533 
       54950.00          0.3213          0.4859 
       55000.00          0.3158          0.4033 
       55050.00          0.3244          0.5040 
       55100.00          0.3203          0.4505 
       55150.00          0.3210          0.4199 
       55200.00          0.3139          0.4304 
       55250.00          0.3011          0.3980 
       55300.00          0.3410          0.4541 
       55350.00          0.3239          0.4358 
       55400.00          0.3293          0.4711 
       55450.00          0.3182          0.4580 
       55500.00          0.3075          0.4464 
       55550.00          0.3215          0.4111 
       55600.00          0.3590          0.3668 
       55650.00          0.3656          0.3632 
       55700.00          0.3439          0.3254 
       55750.00          0.3782          0.2743 
       55800.00          0.3791          0.2648 
       55850.00          0.3441          0.4407 
       55900.00          0.3450          0.4025 
       55950.00          0.3734          0.4611 
       56000.00          0.3871          0.4345 
       56050.00          0.3526          0.4637 
       56100.00          0.3386          0.4355 
       56150.00          0.3640          0.4687 
       56200.00          0.3678          0.5091 
       56250.00          0.3719          0.5300 
       56300.00          0.3497          0.5203 
       56350.00          0.3313          0.4392 
       56400.00          0.3270          0.4686 
       56450.00          0.3255          0.3767 
       56500.00          0.3355          0.3235 
       56550.00          0.3350          0.3063 
       56600.00          0.4081          0.2743 
       56650.00          0.4250          0.2845 
       56700.00          0.3985          0.4359 
       56750.00          0.4403          0.4726 
       56800.00          0.4093          0.4218 
       56850.00          0.4081          0.5218 
       56900.00          0.4457          0.6020 
       56950.00          0.4826          0.7036 
       57000.00          0.4973          0.6881 
       57050.00          0.4787          0.6500 
       57100.00          0.4175          0.5490 
       57150.00          0.4516          0.5702 
       57200.00          0.4419          0.5926 
       57250.00          0.4209          0.6169 
       57300.00          0.3917          0.5168 
       57350.00          0.4441          0.4542 
       57400.00          0.3858          0.4391 
       57450.00          0.3888          0.3637 
       57500.00          0.3805          0.4043 
       57550.00          0.3844          0.5246 
       57600.00          0.3937          0.4950 
       57650.00          0.3408          0.4811 
       57700.00          0.3485          0.4986 
       57750.00          0.3594          0.5405 
       57800.00          0.3768          0.4781 
       57850.00          0.3763          0.3730 
       57900.00          0.3804          0.4181 
       57950.00          0.3755          0.3542 
       58000.00          0.4013          0.4644 
       58050.00          0.3453          0.5383 
       58100.00          0.3112          0.5828 
       58150.00          0.3507          0.5904 
       58200.00          0.3213          0.5271 
       58250.00          0.3310          0.4965 
       58300.00          0.2973          0.5540 
       58350.00          0.3012          0.5189 
       58400.00          0.3359          0.5348 
       58450.00          0.3563          0.5155 
       58500.00          0.3236          0.4842 
       58550.00          0.3311          0.5601 
       58600.00          0.3257          0.5409 
       58650.00          0.3489          0.5044 
       58700.00          0.3717          0.4990 
       58750.00          0.3406          0.5682 
       58800.00          0.3508          0.5686 
       58850.00          0.3284          0.5380 
       58900.00          0.3803          0.5770 
       58950.00          0.3317          0.5445 
       59000.00          0.3725          0.5820 
       59050.00          0.3601          0.5658 
       59100.00          0.3613          0.5182 
       59150.00          0.3782          0.5843 
       59200.00          0.3258          0.5309 
       59250.00          0.3833          0.5453 
       59300.00          0.3510          0.5069 
       59350.00          0.3950          0.5083 
       59400.00          0.3675          0.4279 
       59450.00          0.3797          0.3909 
       59500.00          0.3801          0.4498 
       59550.00          0.4010          0.3665 
       59600.00          0.3863          0.4490 
       59650.00          0.4134          0.4991 
       59700.00          0.3950          0.5064 
       59750.00          0.3638          0.5036 
       59800.00          0.3573          0.5018 
       59850.00          0.3295          0.5530 
       59900.00          0.3785          0.5998 
       59950.00          0.3843          0.5438 
       60000.00          0.3812          0.5229 
       60050.00          0.3628          0.4964 
       60100.00          0.3877          0.5229 
       60150.00          0.4272          0.5481 
       60200.00          0.4191          0.5556 
       60250.00          0.4438          0.6095 
       60300.00          0.3946          0.5772 
       60350.00          0.4031          0.5798 
       60400.00          0.4186          0.5152 
       60450.00          0.4105          0.5778 
       60500.00          0.3810          0.5815 
       60550.00          0.4499          0.5630 
       60600.00          0.4207          0.6450 
       60650.00          0.4100          0.6574 
       60700.00          0.4089          0.6437 
       60750.00          0.3922          0.5494 
       60800.00          0.4277          0.5917 
       60850.00          0.4936          0.7018 
       60900.00          0.4744          0.6876 
       60950.00          0.3817          0.5351 
       61000.00          0.4412          0.5465 
       61050.00          0.3891          0.5139 
       61100.00          0.4240          0.4701 
       61150.00          0.4140          0.4637 
       61200.00          0.4300          0.5547 
       61250.00          0.4644          0.5717 
       61300.00          0.4523          0.5113 
       61350.00          0.4354          0.5174 
       61400.00          0.4090          0.5235 
       61450.00          0.4242          0.4680 
       61500.00          0.4254          0.4940 
       61550.00          0.4302          0.4512 
       61600.00          0.4421          0.3781 
       61650.00          0.4347          0.4673 
       61700.00          0.4357          0.4743 
       61750.00          0.4066          0.5618 
       61800.00          0.4438          0.6152 
       61850.00          0.4101          0.5960 
       61900.00          0.4590          0.6510 
       61950.00          0.5435          0.7296 
       62000.00          0.4421          0.6634 
       62050.00          0.4543          0.6917 
       62100.00          0.3963          0.5992 
       62150.00          0.3559          0.5299 
       62200.00          0.3663          0.4196 
       62250.00          0.3645          0.4854 
       62300.00          0.4203          0.4172 
       62350.00          0.4176          0.3672 
       62400.00          0.4590          0.4203 
       62450.00          0.4182          0.4720 
       62500.00          0.3882          0.4899 
       62550.00          0.4467          0.4471 
       62600.00          0.4093          0.4704 
       62650.00          0.3874          0.5180 
       62700.00          0.4100          0.5563 
       62750.00          0.3877          0.5577 
       62800.00          0.4308          0.6227 
       62850.00          0.3866          0.5440 
       62900.00          0.4255          0.4780 
       62950.00          0.4579          0.5293 
       63000.00          0.3708          0.4563 
       63050.00          0.3432          0.4978 
       63100.00          0.3985          0.5290 
       63150.00          0.3952          0.4676 
       63200.00          0.3572          0.4440 
       63250.00          0.3777          0.5042 
       63300.00          0.3926          0.5938 
       63350.00          0.4077          0.5333 
       63400.00          0.4659          0.5928 
       63450.00          0.4424          0.5783 
       63500.00          0.4122          0.5625 
       63550.00          0.4603          0.6545 
       63600.00          0.4241          0.6086 
       63650.00          0.4174          0.5997 
       63700.00          0.4076          0.5449 
       63750.00          0.4279          0.5485 
       63800.00          0.4084          0.5353 
       63850.00          0.4318          0.6128 
       63900.00          0.3718          0.5720 
       63950.00          0.3463          0.5358 
       64000.00          0.3748          0.5434 
       64050.00          0.3450          0.5642 
       64100.00          0.3034          0.5788 
       64150.00          0.3095          0.5381 
       64200.00          0.3834          0.5234 
       64250.00          0.3561          0.4578 
       64300.00          0.3659          0.5187 
       64350.00          0.3612          0.4872 
       64400.00          0.4090          0.5598 
       64450.00          0.4111          0.5834 
       64500.00          0.4160          0.5372 
       64550.00          0.3777          0.4972 
       64600.00          0.4231          0.5421 
       64650.00          0.3864          0.5376 
       64700.00          0.3920          0.5758 
       64750.00          0.3622          0.5650 
       64800.00          0.4004          0.6124 
       64850.00          0.4446          0.5677 
       64900.00          0.4109          0.6282 
       64950.00          0.4629          0.6534 
       65000.00          0.4608          0.6186 
       65050.00          0.3772          0.5647 
       65100.00          0.3739          0.5600 
       65150.00          0.4298          0.5569 
       65200.00          0.4154          0.5401 
       65250.00          0.4363          0.6077 
       65300.00          0.3813          0.5177 
       65350.00          0.4237          0.5337 
       65400.00          0.4089          0.5843 
       65450.00          0.3431          0.5249 
       65500.00          0.4417          0.6334 
       65550.00          0.4251          0.6166 
       65600.00          0.4269          0.5893 
       65650.00          0.4503          0.5378 
       65700.00          0.4384          0.4211 
       65750.00          0.4088          0.4937 
       65800.00          0.4070          0.5260 
       65850.00          0.4425          0.5623 
       65900.00          0.4229          0.5487 
       65950.00          0.4071          0.5344 
       66000.00          0.4036          0.4947 
       66050.00          0.3973          0.4765 
       66100.00          0.4205          0.4264 
       66150.00          0.4601          0.4058 
       66200.00          0.4261          0.4224 
       66250.00          0.4457          0.4370 
       66300.00          0.4641          0.4490 
       66350.00          0.4484          0.4469 
       66400.00          0.4877          0.4372 
       66450.00          0.4731          0.3895 
       66500.00          0.4622          0.4143 
       66550.00          0.5046          0.4082 
       66600.00          0.4899          0.3797 
       66650.00          0.4041          0.3917 
       66700.00          0.4131          0.3565 
       66750.00          0.4787          0.3379 
       66800.00          0.4475          0.3605 
       66850.00          0.4467          0.3304 
       66900.00          0.4403          0.4045 
       66950.00          0.4350          0.4306 
       67000.00          0.4039          0.4440 
       67050.00          0.4128          0.5053 
       67100.00          0.3760          0.5213 
       67150.00          0.4031          0.4815 
       67200.00          0.3926          0.4687 
       67250.00          0.4021          0.4245 
       67300.00          0.3738          0.3839 
       67350.00          0.4442          0.4441 
       67400.00          0.4369          0.4149 
       67450.00          0.4403          0.4273 
       67500.00          0.4364          0.4652 
       67550.00          0.4052          0.4629 
       67600.00          0.4239          0.5473 
       67650.00          0.3768          0.5100 
       67700.00          0.3807          0.5137 
       67750.00          0.4030          0.6184 
       67800.00          0.4403          0.6904 
       67850.00          0.5015          0.7241 
       67900.00          0.4990          0.6815 
       67950.00          0.4749          0.6922 
       68000.00          0.4751          0.7248 
       68050.00          0.4961          0.7090 
       68100.00          0.4173          0.6256 
       68150.00          0.4115          0.6382 
       68200.00          0.4795          0.6632 
       68250.00          0.4900          0.6929 
       68300.00          0.4680          0.6420 
       68350.00          0.4545          0.6402 
       68400.00          0.4167          0.6317 
       68450.00          0.4416          0.6273 
       68500.00          0.4981          0.6638 
       68550.00          0.4109          0.5105 
       68600.00          0.4598          0.5640 
       68650.00          0.4368          0.5824 
       68700.00          0.4621          0.5921 
       68750.00          0.4438          0.6052 
       68800.00          0.4015          0.5625 
       68850.00          0.4252          0.6346 
       68900.00          0.4068          0.5029 
       68950.00          0.3976          0.4225 
       69000.00          0.3884          0.4896 
       69050.00          0.4007          0.4266 
       69100.00          0.3983          0.4497 
       69150.00          0.3431          0.4239 
       69200.00          0.3415          0.4511 
       69250.00          0.3655          0.4695 
       69300.00          0.3663          0.5280 
       69350.00          0.3239          0.5127 
       69400.00          0.3233          0.5215 
       69450.00          0.3314          0.5576 
       69500.00          0.2981          0.5132 
       69550.00          0.3399          0.4815 
       69600.00          0.3389          0.5536 
       69650.00          0.3699          0.4832 
       69700.00          0.3275          0.4825 
       69750.00          0.3343          0.4371 
       69800.00          0.3854          0.4115 
       69850.00          0.3623          0.4617 
       69900.00          0.4204          0.4997 
       69950.00          0.4068          0.5309 
       70000.00          0.4443          0.5321 
       70050.00          0.4253          0.5692 
       70100.00          0.4199          0.5682 
       70150.00          0.4086          0.6069 
       70200.00          0.4510          0.5739 
       70250.00          0.4439          0.5626 
       70300.00          0.4194          0.5414 
       70350.00          0.4396          0.5156 
       70400.00          0.4016          0.4773 
       70450.00          0.3561          0.5387 
       70500.00          0.3927          0.5558 
       70550.00          0.3256          0.5220 
       70600.00          0.3993          0.5622 
       70650.00          0.3562          0.5052 
       70700.00          0.3928          0.5655 
       70750.00          0.3731          0.5617 
       70800.00          0.4675          0.6641 
       70850.00          0.3165          0.4994 
       70900.00          0.3902          0.5240 
       70950.00          0.4520          0.5626 
       71000.00          0.3750          0.6034 
       71050.00          0.4132          0.6419 
       71100.00          0.4579          0.6844 
       71150.00          0.4697          0.6509 
       71200.00          0.4487          0.6383 
       71250.00          0.4234          0.6594 
       71300.00          0.4551          0.6784 
       71350.00          0.4454          0.6752 
       71400.00          0.4848          0.6712 
       71450.00          0.4754          0.6938 
       71500.00          0.4929          0.7043 
       71550.00          0.5014          0.6836 
       71600.00          0.4489          0.6357 
       71650.00          0.4672          0.6773 
       71700.00          0.4409          0.6376 
       71750.00          0.4649          0.6118 
       71800.00          0.4755          0.6492 
       71850.00          0.4263          0.6197 
       71900.00          0.4579          0.6784 
       71950.00          0.4483          0.5204 
       72000.00          0.4763          0.6593 
       72050.00          0.4969          0.6732 
       72100.00          0.5418          0.7584 
       72150.00          0.5081          0.6948 
       72200.00          0.4893          0.7212 
       72250.00          0.4530          0.6390 
       72300.00          0.4464          0.6188 
       72350.00          0.3703          0.5847 
       72400.00          0.3352          0.5518 
       72450.00          0.3780          0.5445 
       72500.00          0.3771          0.5625 
       72550.00          0.3698          0.5332 
       72600.00          0.4061          0.4539 
       72650.00          0.3772          0.4679 
       72700.00          0.4080          0.4313 
       72750.00          0.4154          0.4082 
       72800.00          0.3852          0.4305 
       72850.00          0.3270          0.4261 
       72900.00          0.3634          0.3954 
       72950.00          0.3285          0.4598 
       73000.00          0.3776          0.4787 
       73050.00          0.4016          0.3817 
       73100.00          0.4349          0.3823 
       73150.00          0.4196          0.3252 
       73200.00          0.4269          0.2667 
       73250.00          0.4491          0.3209 
       73300.00          0.4414          0.2460 
       73350.00          0.4985          0.2570 
       73400.00          0.4336          0.3651 
       73450.00          0.4255          0.3648 
       73500.00          0.3825          0.4033 
       73550.00          0.4064          0.4408 
       73600.00          0.2623          0.5150 
       73650.00          0.3830          0.5015 
       73700.00          0.3184          0.5796 
       73750.00          0.3868          0.5989 
       73800.00          0.3403          0.5241 
       73850.00          0.4545          0.6015 
       73900.00          0.3970          0.5361 
       73950.00          0.3702          0.4983 
       74000.00          0.3468          0.4792 
       74050.00          0.3284          0.4965 
       74100.00          0.3214          0.4581 
       74150.00          0.3354          0.4515 
       74200.00          0.3052          0.4595 
       74250.00          0.3607          0.5337 
       74300.00          0.3864          0.5347 
       74350.00          0.4070          0.4601 
       74400.00          0.4113          0.5079 
       74450.00          0.3824          0.5155 
       74500.00          0.3761          0.4940 
       74550.00          0.4352          0.5287 
       74600.00          0.4253          0.6084 
       74650.00          0.4444          0.6435 
       74700.00          0.4965          0.7295 
       74750.00          0.4442          0.6336 
       74800.00          0.3718          0.4985 
       74850.00          0.4300          0.5193 
       74900.00          0.4033          0.5291 
       74950.00          0.3726          0.5288 
       75000.00          0.4267          0.5703 
       75050.00          0.4252          0.5938 
       75100.00          0.4168          0.5631 
       75150.00          0.4540          0.6433 
       75200.00          0.5018          0.6749 
       75250.00          0.4590          0.6253 
       75300.00          0.4108          0.5729 
       75350.00          0.4496          0.6479 
       75400.00          0.4305          0.6395 
       75450.00          0.4055          0.6154 
       75500.00          0.4824          0.6586 
       75550.00          0.4463          0.6074 
       75600.00          0.4397          0.6271 
       75650.00          0.5159          0.7329 
       75700.00          0.4938          0.6570 
       75750.00          0.4879          0.6574 
       75800.00          0.4659          0.6473 
       75850.00          0.4448          0.6104 
       75900.00          0.4774          0.6873 
       75950.00          0.4661          0.6312 
       76000.00          0.4400          0.5894 
       76050.00          0.4651          0.5495 
       76100.00          0.4310          0.5476 
       76150.00          0.3637          0.5197 
       76200.00          0.3796          0.6114 
       76250.00          0.4099          0.6106 
       76300.00          0.4469          0.6725 
       76350.00          0.4202          0.6477 
       76400.00          0.3958          0.6130 
       76450.00          0.3536          0.5236 
       76500.00          0.3868          0.4358 
       76550.00          0.4012          0.4350 
       76600.00          0.4094          0.4281 
       76650.00          0.5056          0.4033 
       76700.00          0.4361          0.3805 
       76750.00          0.4563          0.4411 
       76800.00          0.4316          0.3831 
       76850.00          0.4351          0.3566 
       76900.00          0.4059          0.3710 
       76950.00          0.4530          0.4522 
       77000.00          0.4286          0.5539 
       77050.00          0.3940          0.6180 
       77100.00          0.4501          0.5692 
       77150.00          0.4299          0.6024 
       77200.00          0.4316          0.5487 
       77250.00          0.4067          0.5275 
       77300.00          0.3899          0.5459 
       77350.00          0.4767          0.6336 
       77400.00          0.4579          0.6024 
       77450.00          0.4246          0.5768 
       77500.00          0.4226          0.5667 
       77550.00          0.3548          0.4823 
       77600.00          0.3892          0.4675 
       77650.00          0.3942          0.5090 
       77700.00          0.4129          0.5528 
       77750.00          0.3345          0.5347 
       77800.00          0.3274          0.5228 
       77850.00          0.3352          0.5112 
       77900.00          0.3596          0.5431 
       77950.00          0.3932          0.5043 
       78000.00          0.4420          0.4147 
       78050.00          0.4441          0.3754 
       78100.00          0.4506          0.3820 
       78150.00          0.3636          0.4200 
       78200.00          0.3849          0.4447 
       78250.00          0.3720          0.4572 
       78300.00          0.3844          0.4684 
       78350.00          0.3525          0.4954 
       78400.00          0.4051          0.4920 
       78450.00          0.3612          0.5044 
       78500.00          0.3988          0.4769 
       78550.00          0.4353          0.3996 
       78600.00          0.4434          0.4112 
       78650.00          0.4257          0.3751 
       78700.00          0.4260          0.3639 
       78750.00          0.4165          0.3342 
       78800.00          0.4534          0.3396 
       78850.00          0.4665          0.3474 
       78900.00          0.4898          0.3117 
       78950.00          0.4956          0.3094 
       79000.00          0.5157          0.3167 
       79050.00          0.5108          0.3472 
       79100.00          0.5042          0.3711 
       79150.00          0.4684          0.4114 
       79200.00          0.4660          0.3804 
       79250.00          0.4705          0.3624 
       79300.00          0.4382          0.3213 
       79350.00          0.4797          0.4154 
       79400.00          0.4502          0.4005 
       79450.00          0.4642          0.4109 
       79500.00          0.4305          0.4034 
       79550.00          0.4520          0.4553 
       79600.00          0.4066          0.3953 
       79650.00          0.3637          0.4632 
       79700.00          0.4133          0.4596 
       79750.00          0.3934          0.4967 
       79800.00          0.4177          0.5235 
       79850.00          0.4650          0.6061 
       79900.00          0.4287          0.5860 
       79950.00          0.4303          0.5239 
       80000.00          0.4524          0.5537 
       80050.00          0.4443          0.6622 
       80100.00          0.3734          0.6121 
       80150.00          0.3847          0.6163 
       80200.00          0.4191          0.5852 
       80250.00          0.4482          0.6243 
       80300.00          0.4215          0.6479 
       80350.00          0.4229          0.6287 
       80400.00          0.4289          0.5968 
       80450.00          0.4477          0.6183 
       80500.00          0.3872          0.4789 
       80550.00          0.3570          0.5052 
       80600.00          0.3402          0.5187 
       80650.00          0.3813          0.6027 
       80700.00          0.3884          0.5478 
       80750.00          0.3886          0.5937 
       80800.00          0.4111          0.6151 
       80850.00          0.4487          0.6594 
       80900.00          0.4033          0.6339 
       80950.00          0.3675          0.5752 
       81000.00          0.4061          0.5270 
       81050.00          0.3838          0.5494 
       81100.00          0.4107          0.5518 
       81150.00          0.4270          0.5400 
       81200.00          0.3486          0.5306 
       81250.00          0.4041          0.5065 
       81300.00          0.3835          0.4348 
       81350.00          0.4112          0.3346 
       81400.00          0.4074          0.3797 
       81450.00          0.4252          0.4957 
       81500.00          0.3596          0.4570 
       81550.00          0.3774          0.5148 
       81600.00          0.4101          0.5129 
       81650.00          0.4081          0.4900 
       81700.00          0.4685          0.6938 
       81750.00          0.4395          0.6531 
       81800.00          0.4431          0.6120 
       81850.00          0.4354          0.5514 
       81900.00          0.4203          0.5648 
       81950.00          0.3990          0.5504 
       82000.00          0.3885          0.4903 
       82050.00          0.3960          0.4068 
       82100.00          0.4203          0.5072 
       82150.00          0.3887          0.5036 
       82200.00          0.3774          0.4093 
       82250.00          0.4283          0.4903 
       82300.00          0.3956          0.5434 
       82350.00          0.3533          0.5912 
       82400.00          0.3295          0.5799 
       82450.00          0.3715          0.5761 
       82500.00          0.3581          0.5642 
       82550.00          0.3934          0.5333 
       82600.00          0.3904          0.4933 
       82650.00          0.3878          0.4995 
       82700.00          0.3696          0.4915 
       82750.00          0.3411          0.5149 
       82800.00          0.3612          0.5143 
       82850.00          0.3763          0.5630 
       82900.00          0.3295          0.5165 
       82950.00          0.4007          0.5908 
       83000.00          0.4035          0.5758 
       83050.00          0.4023          0.5627 
       83100.00          0.3711          0.5350 
       83150.00          0.3482          0.4364 
       83200.00          0.3205          0.4579 
       83250.00          0.3208          0.4662 
       83300.00          0.3414          0.3988 
       83350.00          0.3336          0.3985 
       83400.00          0.3446          0.3896 
       83450.00          0.3796          0.5171 
       83500.00          0.3452          0.4264 
       83550.00          0.3382          0.4134 
       83600.00          0.3667          0.5236 
       83650.00          0.3782          0.5409 
       83700.00          0.3328          0.4143 
       83750.00          0.3439          0.4236 
       83800.00          0.3766          0.4158 
       83850.00          0.3538          0.3409 
       83900.00          0.3855          0.3394 
       83950.00          0.3350          0.3720 
       84000.00          0.3621          0.4526 
       84050.00          0.4110          0.4398 
       84100.00          0.3732          0.4082 
       84150.00          0.4217          0.3502 
       84200.00          0.3768          0.3485 
       84250.00          0.3999          0.3269 
       84300.00          0.4349          0.3063 
       84350.00          0.4192          0.3341 
       84400.00          0.4387          0.3622 
       84450.00          0.4137          0.3291 
       84500.00          0.4092          0.4174 
       84550.00          0.4274          0.3348 
       84600.00          0.4093          0.3971 
       84650.00          0.4186          0.4276 
       84700.00          0.4550          0.5397 
       84750.00          0.4290          0.5456 
       84800.00          0.4431          0.5905 
       84850.00          0.4351          0.5537 
       84900.00          0.4072          0.4724 
       84950.00          0.4243          0.4972 
       85000.00          0.3975          0.5034 
       85050.00          0.3750          0.5266 
       85100.00          0.3753          0.5214 
       85150.00          0.4025          0.5170 
       85200.00          0.3669          0.5443 
       85250.00          0.3981          0.5859 
       85300.00          0.4000          0.5464 
       85350.00          0.3554          0.5059 
       85400.00          0.3976          0.5373 
       85450.00          0.3598          0.5124 
       85500.00          0.3931          0.5832 
       85550.00          0.3430          0.4389 
       85600.00          0.3284          0.4372 
       85650.00          0.2995          0.4920 
       85700.00          0.3435          0.4972 
       85750.00          0.3902          0.4970 
       85800.00          0.3871          0.3580 
       85850.00          0.4305          0.3344 
       85900.00          0.4208          0.3519 
       85950.00          0.4101          0.4209 
       86000.00          0.3943          0.4666 
       86050.00          0.3665          0.4457 
       86100.00          0.3999          0.5486 
       86150.00          0.4220          0.5710 
       86200.00          0.4162          0.5025 
       86250.00          0.3931          0.5667 
       86300.00          0.4167          0.6178 
       86350.00          0.4675          0.6380 
       86400.00          0.4322          0.6290 
       86450.00          0.4947          0.7153 
       86500.00          0.4993          0.6884 
       86550.00          0.4835          0.6521 
       86600.00          0.4844          0.6393 
       86650.00          0.4649          0.6378 
       86700.00          0.4913          0.6644 
       86750.00          0.4567          0.6334 
       86800.00          0.4910          0.6505 
       86850.00          0.4458          0.6058 
       86900.00          0.3804          0.5712 
       86950.00          0.3777          0.6280 
       87000.00          0.3947          0.6028 
       87050.00          0.3970          0.5695 
       87100.00          0.3974          0.6357 
       87150.00          0.3515          0.5308 
       87200.00          0.3409          0.5152 
       87250.00          0.3868          0.5443 
       87300.00          0.3934          0.5355 
       87350.00          0.4187          0.4701 
       87400.00          0.4219          0.5443 
       87450.00          0.4471          0.5558 
       87500.00          0.4262          0.4973 
       87550.00          0.4374          0.5987 
       87600.00          0.4876          0.6648 
       87650.00          0.4499          0.6102 
       87700.00          0.4312          0.5693 
       87750.00          0.4274          0.5628 
       87800.00          0.3959          0.5376 
       87850.00          0.3655          0.5415 
       87900.00          0.3333          0.4602 
       87950.00          0.3804          0.4624 
       88000.00          0.3481          0.4493 
       88050.00          0.3984          0.4026 
       88100.00          0.3697          0.4644 
       88150.00          0.3758          0.4832 
       88200.00          0.4106          0.5876 
       88250.00          0.4635          0.6680 
       88300.00          0.4434          0.6742 
       88350.00          0.4481          0.5659 
       88400.00          0.4883          0.6861 
       88450.00          0.4657          0.7098 
       88500.00          0.4523          0.6846 
       88550.00          0.4982          0.6727 
       88600.00          0.4312          0.6401 
       88650.00          0.5217          0.7426 
       88700.00          0.4287          0.6487 
       88750.00          0.4630          0.6811 
       88800.00          0.4328          0.6185 
       88850.00          0.3578          0.5153 
       88900.00          0.4532          0.5874 
       88950.00          0.4149          0.5238 
       89000.00          0.3529          0.5224 
       89050.00          0.3937          0.5076 
       89100.00          0.3863          0.4340 
       89150.00          0.3811          0.4566 
       89200.00          0.4247          0.4336 
       89250.00          0.4130          0.4779 
       89300.00          0.4284          0.4769 
       89350.00          0.4254          0.4035 
       89400.00          0.3870          0.4679 
       89450.00          0.3900          0.4695 
       89500.00          0.3442          0.4380 
       89550.00          0.3374          0.4832 
       89600.00          0.3797          0.4782 
       89650.00          0.4286          0.5453 
       89700.00          0.4440          0.5452 
       89750.00          0.4072          0.4220 
       89800.00          0.4081          0.4785 
       89850.00          0.4140          0.5115 
       89900.00          0.4256          0.4147 
       89950.00          0.4362          0.4319 
       90000.00          0.4611          0.5404 
       90050.00          0.3802          0.4822 
       90100.00          0.3912          0.5172 
       90150.00          0.4298          0.5105 
       90200.00          0.4099          0.5229 
       90250.00          0.4179          0.5825 
       90300.00          0.4476          0.5677 
       90350.00          0.4469          0.6202 
       90400.00          0.4194          0.5690 
       90450.00          0.4033          0.5402 
       90500.00          0.3734          0.5134 
       90550.00          0.3903          0.5105 
       90600.00          0.4412          0.5795 
       90650.00          0.4284          0.5774 
       90700.00          0.4088          0.6025 
       90750.00          0.3699          0.5509 
       90800.00          0.3775          0.5658 
       90850.00          0.3331          0.5281 
       90900.00          0.3566          0.5627 
       90950.00          0.3081          0.5636 
       91000.00          0.3065          0.4876 
       91050.00          0.3237          0.3978 
       91100.00          0.3723          0.4355 
       91150.00          0.3716          0.4596 
       91200.00          0.4164          0.4478 
       91250.00          0.3732          0.4817 
       91300.00          0.4234          0.6547 
       91350.00          0.4133          0.6527 
       91400.00          0.4730          0.6968 
       91450.00          0.4775          0.6771 
       91500.00          0.4717          0.6219 
       91550.00          0.4387          0.6109 
       91600.00          0.4701          0.5668 
       91650.00          0.4462          0.4685 
       91700.00          0.4412          0.4927 
       91750.00          0.4193          0.5552 
       91800.00          0.4427          0.5624 
       91850.00          0.4889          0.6895 
       91900.00          0.4756          0.6512 
       91950.00          0.4291          0.5890 
       92000.00          0.4374          0.5952 
       92050.00          0.4045          0.5090 
       92100.00          0.4361          0.5802 
       92150.00          0.4488          0.5690 
       92200.00          0.4856          0.6419 
       92250.00          0.4564          0.6133 
       92300.00          0.4511          0.6076 
       92350.00          0.4355          0.6289 
       92400.00          0.4404          0.5663 
       92450.00          0.4206          0.4998 
       92500.00          0.3997          0.4921 
       92550.00          0.4125          0.5498 
       92600.00          0.4238          0.5582 
       92650.00          0.3986          0.5380 
       92700.00          0.4187          0.5757 
       92750.00          0.3920          0.5270 
       92800.00          0.4238          0.5042 
       92850.00          0.4306          0.5213 
       92900.00          0.4211          0.5454 
       92950.00          0.4191          0.5663 
       93000.00          0.4102          0.5710 
       93050.00          0.4005          0.5658 
       93100.00          0.4598          0.6434 
       93150.00          0.4584          0.6747 
       93200.00          0.4497          0.5710 
       93250.00          0.3757          0.5612 
       93300.00          0.3651          0.5071 
       93350.00          0.4123          0.4450 
       93400.00          0.4092          0.5831 
       93450.00          0.3944          0.6107 
       93500.00          0.4325          0.7028 
       93550.00          0.4046          0.6400 
       93600.00          0.5028          0.7168 
       93650.00          0.4380          0.6824 
       93700.00          0.4211          0.5903 
       93750.00          0.4144          0.5981 
       93800.00          0.3352          0.4863 
       93850.00          0.3308          0.4977 
       93900.00          0.3800          0.5834 
       93950.00          0.4636          0.6551 
       94000.00          0.3854          0.6240 
       94050.00          0.4164          0.6466 
       94100.00          0.4348          0.6092 
       94150.00          0.3888          0.5184 
       94200.00          0.3775          0.5292 
       94250.00          0.4070          0.5901 
       94300.00          0.4397          0.6312 
       94350.00          0.3906          0.5450 
       94400.00          0.4199          0.5926 
       94450.00          0.4185          0.5986 
       94500.00          0.4520          0.5560 
       94550.00          0.4248          0.5841 
       94600.00          0.4517          0.6294 
       94650.00          0.4357          0.6673 
       94700.00          0.4695          0.6681 
       94750.00          0.4369          0.6493 
       94800.00          0.4573          0.6557 
       94850.00          0.4658          0.6835 
       94900.00          0.4037          0.5237 
       94950.00          0.4330          0.5285 
       95000.00          0.4892          0.6633 
       95050.00          0.5331          0.7037 
       95100.00          0.5071          0.7211 
       95150.00          0.4886          0.6828 
       95200.00          0.4621          0.6695 
       95250.00          0.4969          0.6412 
       95300.00          0.4592          0.5956 
       95350.00          0.4233          0.6234 
       95400.00          0.4046          0.6317 
       95450.00          0.4760          0.6316 
       95500.00          0.4509          0.6584 
       95550.00          0.4337          0.6190 
       95600.00          0.4218          0.5839 
       95650.00          0.4424          0.5629 
       95700.00          0.4041          0.5688 
       95750.00          0.4192          0.6225 
       95800.00          0.4139          0.6585 
       95850.00          0.4812          0.7090 
       95900.00          0.4595          0.6803 
       95950.00          0.4901          0.7143 
       96000.00          0.4726          0.6401 
       96050.00          0.4929          0.6737 
       96100.00          0.4576          0.5703 
       96150.00          0.4380          0.4911 
       96200.00          0.4246          0.5825 
       96250.00          0.4700          0.6786 
       96300.00          0.4799          0.6963 
       96350.00          0.5387          0.7483 
       96400.00          0.5051          0.7164 
       96450.00          0.4490          0.6229 
       96500.00          0.4286          0.5586 
       96550.00          0.4166          0.5640 
       96600.00          0.4466          0.6711 
       96650.00          0.5220          0.7598 
       96700.00          0.4889          0.7207 
       96750.00          0.4740          0.6648 
       96800.00          0.4908          0.6785 
       96850.00          0.4653          0.6511 
       96900.00          0.5373          0.6834 
       96950.00          0.5654          0.7827 
       97000.00          0.4717          0.7112 
       97050.00          0.4829          0.7157 
       97100.00          0.4927          0.7252 
       97150.00          0.4861          0.6876 
       97200.00          0.4401          0.5854 
       97250.00          0.4853          0.6783 
       97300.00          0.4972          0.6728 
       97350.00          0.5030          0.6965 
       97400.00          0.4834          0.7014 
       97450.00          0.5278          0.7121 
       97500.00          0.4654          0.6453 
       97550.00          0.4495          0.6715 
       97600.00          0.4834          0.7000 
       97650.00          0.4530          0.6311 
       97700.00          0.4139          0.6001 
       97750.00          0.3823          0.5690 
       97800.00          0.4743          0.6353 
       97850.00          0.4483          0.6672 
       97900.00          0.4826          0.6800 
       97950.00          0.4694          0.6435 
       98000.00          0.4613          0.5791 
       98050.00          0.4159          0.5227 
       98100.00          0.4373          0.4875 
       98150.00          0.3971          0.4814 
       98200.00          0.4284          0.5134 
       98250.00          0.3785          0.4702 
       98300.00          0.4125          0.5252 
       98350.00          0.3784          0.5791 
       98400.00          0.3959          0.5834 
       98450.00          0.3850          0.5853 
       98500.00          0.4060          0.6100 
       98550.00          0.3942          0.6002 
       98600.00          0.4549          0.6109 
       98650.00          0.5022          0.6500 
       98700.00          0.4604          0.6631 
       98750.00          0.4864          0.6633 
       98800.00          0.4908          0.6777 
       98850.00          0.4873          0.7057 
       98900.00          0.3970          0.6125 
       98950.00          0.4627          0.5925 
       99000.00          0.4126          0.5943 
       99050.00          0.4329          0.5710 
       99100.00          0.4368          0.6122 
       99150.00          0.4350          0.6458 
       99200.00          0.4148          0.5954 
       99250.00          0.3592          0.5524 
       99300.00          0.4362          0.5587 
       99350.00          0.4035          0.4863 
       99400.00          0.3979          0.4872 
       99450.00          0.3453          0.5372 
       99500.00          0.3837          0.5231 
       99550.00          0.4238          0.5559 
       99600.00          0.4751          0.6098 
       99650.00          0.4299          0.5485 
       99700.00          0.3853          0.4951 
       99750.00          0.3800          0.6005 
       99800.00          0.4859          0.6847 
       99850.00          0.4809          0.6551 
       99900.00          0.4370          0.6706 
       99950.00          0.4226          0.6409 
      100000.00          0.4196          0.5615 
