@    xaxis  label "t"
@    yaxis  label "RMSD (nm)"
           0.00          0.0000          0.4517 
          50.00          0.0997          0.4674 
         100.00          0.1399          0.4602 
         150.00          0.1553          0.4261 
         200.00          0.2160          0.4376 
         250.00          0.2353          0.4126 
         300.00          0.2751          0.4202 
         350.00          0.2303          0.4014 
         400.00          0.2209          0.4122 
         450.00          0.1959          0.4012 
         500.00          0.1609          0.4050 
         550.00          0.1227          0.4180 
         600.00          0.0588          0.4423 
         650.00          0.0490          0.4526 
         700.00          0.0595          0.4515 
         750.00          0.0695          0.4425 
         800.00          0.0718          0.4339 
         850.00          0.0709          0.4475 
         900.00          0.0986          0.4402 
         950.00          0.0404          0.4422 
        1000.00          0.0660          0.4502 
        1050.00          0.0655          0.4395 
        1100.00          0.0834          0.4407 
        1150.00          0.0481          0.4403 
        1200.00          0.0660          0.4330 
        1250.00          0.0362          0.4483 
        1300.00          0.0601          0.4432 
        1350.00          0.0657          0.4382 
        1400.00          0.0853          0.4304 
        1450.00          0.1296          0.4229 
        1500.00          0.0523          0.4424 
        1550.00          0.0532          0.4396 
        1600.00          0.0569          0.4476 
        1650.00          0.0681          0.4574 
        1700.00          0.0817          0.4473 
        1750.00          0.0753          0.4363 
        1800.00          0.0866          0.4406 
        1850.00          0.0771          0.4448 
        1900.00          0.0654          0.4419 
        1950.00          0.0364          0.4419 
        2000.00          0.0727          0.4252 
        2050.00          0.1130          0.4354 
        2100.00          0.0696          0.4368 
        2150.00          0.0952          0.4538 
        2200.00          0.0699          0.4505 
        2250.00          0.0903          0.4285 
        2300.00          0.0560          0.4503 
        2350.00          0.0743          0.4536 
        2400.00          0.0844          0.4459 
        2450.00          0.0517          0.4393 
        2500.00          0.0702          0.4313 
        2550.00          0.0869          0.4386 
        2600.00          0.0912          0.4315 
        2650.00          0.0731          0.4245 
        2700.00          0.0749          0.4449 
        2750.00          0.0597          0.4401 
        2800.00          0.0844          0.4369 
        2850.00          0.0767          0.4397 
        2900.00          0.0692          0.4406 
        2950.00          0.0675          0.4534 
        3000.00          0.0431          0.4472 
        3050.00          0.0780          0.4475 
        3100.00          0.0397          0.4527 
        3150.00          0.0600          0.4509 
        3200.00          0.1111          0.4247 
        3250.00          0.0526          0.4329 
        3300.00          0.0531          0.4438 
        3350.00          0.0442          0.4436 
        3400.00          0.0449          0.4464 
        3450.00          0.0827          0.4350 
        3500.00          0.0594          0.4481 
        3550.00          0.0572          0.4509 
        3600.00          0.0883          0.4355 
        3650.00          0.0922          0.4386 
        3700.00          0.0498          0.4570 
        3750.00          0.0886          0.4381 
        3800.00          0.0719          0.4533 
        3850.00          0.0592          0.4360 
        3900.00          0.0853          0.4412 
        3950.00          0.0858          0.4361 
        4000.00          0.0687          0.4475 
        4050.00          0.0676          0.4289 
        4100.00          0.0497          0.4487 
        4150.00          0.0669          0.4361 
        4200.00          0.0764          0.4459 
        4250.00          0.0669          0.4435 
        4300.00          0.0566          0.4421 
        4350.00          0.0853          0.4457 
        4400.00          0.0579          0.4391 
        4450.00          0.0650          0.4477 
        4500.00          0.1083          0.4457 
        4550.00          0.1310          0.4307 
        4600.00          0.0688          0.4416 
        4650.00          0.0640          0.4558 
        4700.00          0.0325          0.4500 
        4750.00          0.0540          0.4478 
        4800.00          0.0657          0.4407 
        4850.00          0.0606          0.4435 
        4900.00          0.0626          0.4409 
        4950.00          0.0600          0.4386 
        5000.00          0.0789          0.4468 
        5050.00          0.0724          0.4410 
        5100.00          0.0920          0.4332 
        5150.00          0.0559          0.4398 
        5200.00          0.0889          0.4374 
        5250.00          0.0795          0.4476 
        5300.00          0.0693          0.4485 
        5350.00          0.0473          0.4394 
        5400.00          0.0769          0.4395 
        5450.00          0.0600          0.4391 
        5500.00          0.1131          0.4346 
        5550.00          0.1119          0.4313 
        5600.00          0.0667          0.4461 
        5650.00          0.0547          0.4549 
        5700.00          0.0876          0.4321 
        5750.00          0.0690          0.4401 
        5800.00          0.0869          0.4424 
        5850.00          0.0432          0.4452 
        5900.00          0.0588          0.4444 
        5950.00          0.0739          0.4353 
        6000.00          0.0644          0.4355 
        6050.00          0.0726          0.4449 
        6100.00          0.0714          0.4406 
        6150.00          0.0768          0.4370 
        6200.00          0.0608          0.4406 
        6250.00          0.0703          0.4332 
        6300.00          0.0552          0.4476 
        6350.00          0.0741          0.4540 
        6400.00          0.0754          0.4484 
        6450.00          0.0630          0.4496 
        6500.00          0.0526          0.4520 
        6550.00          0.0947          0.4418 
        6600.00          0.0608          0.4493 
        6650.00          0.0828          0.4392 
        6700.00          0.0798          0.4485 
        6750.00          0.0583          0.4590 
        6800.00          0.0750          0.4465 
        6850.00          0.0972          0.4393 
        6900.00          0.0893          0.4459 
        6950.00          0.0769          0.4329 
        7000.00          0.0836          0.4466 
        7050.00          0.0589          0.4565 
        7100.00          0.0688          0.4435 
        7150.00          0.1039          0.4462 
        7200.00          0.0877          0.4449 
        7250.00          0.1172          0.4295 
        7300.00          0.0947          0.4503 
        7350.00          0.0530          0.4561 
        7400.00          0.0804          0.4476 
        7450.00          0.0737          0.4482 
        7500.00          0.0694          0.4391 
        7550.00          0.0669          0.4376 
        7600.00          0.0669          0.4438 
        7650.00          0.0763          0.4415 
        7700.00          0.0968          0.4383 
        7750.00          0.1306          0.4202 
        7800.00          0.1013          0.4359 
        7850.00          0.1558          0.4121 
        7900.00          0.1426          0.4108 
        7950.00          0.1026          0.4218 
        8000.00          0.0593          0.4414 
        8050.00          0.0640          0.4539 
        8100.00          0.0824          0.4533 
        8150.00          0.1269          0.4287 
        8200.00          0.1345          0.4215 
        8250.00          0.0641          0.4337 
        8300.00          0.0759          0.4446 
        8350.00          0.0425          0.4548 
        8400.00          0.0334          0.4587 
        8450.00          0.0507          0.4461 
        8500.00          0.1022          0.4294 
        8550.00          0.0566          0.4427 
        8600.00          0.0551          0.4487 
        8650.00          0.0946          0.4456 
        8700.00          0.0619          0.4492 
        8750.00          0.0585          0.4399 
        8800.00          0.0658          0.4430 
        8850.00          0.1330          0.4269 
        8900.00          0.1419          0.4236 
        8950.00          0.1179          0.4373 
        9000.00          0.1345          0.4172 
        9050.00          0.0931          0.4565 
        9100.00          0.1041          0.4373 
        9150.00          0.1048          0.4321 
        9200.00          0.1070          0.4354 
        9250.00          0.0526          0.4470 
        9300.00          0.0583          0.4470 
        9350.00          0.1085          0.4403 
        9400.00          0.1253          0.4246 
        9450.00          0.1341          0.4206 
        9500.00          0.0925          0.4372 
        9550.00          0.0409          0.4456 
        9600.00          0.0298          0.4493 
        9650.00          0.0671          0.4414 
        9700.00          0.0620          0.4326 
        9750.00          0.0636          0.4405 
        9800.00          0.0559          0.4389 
        9850.00          0.0664          0.4300 
        9900.00          0.0714          0.4519 
        9950.00          0.0631          0.4491 
       10000.00          0.0545          0.4378 
       10050.00          0.0766          0.4414 
       10100.00          0.0700          0.4366 
       10150.00          0.0620          0.4432 
       10200.00          0.0487          0.4408 
       10250.00          0.0868          0.4349 
       10300.00          0.0397          0.4422 
       10350.00          0.0841          0.4438 
       10400.00          0.0277          0.4413 
       10450.00          0.0790          0.4408 
       10500.00          0.0571          0.4309 
       10550.00          0.0431          0.4507 
       10600.00          0.0422          0.4408 
       10650.00          0.0706          0.4425 
       10700.00          0.0894          0.4515 
       10750.00          0.0780          0.4485 
       10800.00          0.0601          0.4514 
       10850.00          0.0846          0.4416 
       10900.00          0.1252          0.4236 
       10950.00          0.0760          0.4559 
       11000.00          0.0623          0.4498 
       11050.00          0.0565          0.4406 
       11100.00          0.0777          0.4424 
       11150.00          0.1165          0.4272 
       11200.00          0.0756          0.4381 
       11250.00          0.1163          0.4370 
       11300.00          0.0619          0.4527 
       11350.00          0.0729          0.4498 
       11400.00          0.0426          0.4503 
       11450.00          0.0517          0.4407 
       11500.00          0.0584          0.4477 
       11550.00          0.0579          0.4469 
       11600.00          0.0384          0.4550 
       11650.00          0.0792          0.4412 
       11700.00          0.0591          0.4554 
       11750.00          0.0949          0.4502 
       11800.00          0.0796          0.4494 
       11850.00          0.0996          0.4488 
       11900.00          0.0625          0.4583 
       11950.00          0.0593          0.4437 
       12000.00          0.0602          0.4318 
       12050.00          0.0609          0.4539 
       12100.00          0.0786          0.4595 
       12150.00          0.1027          0.4546 
       12200.00          0.1339          0.4288 
       12250.00          0.1606          0.4115 
       12300.00          0.1772          0.4000 
       12350.00          0.1559          0.4068 
       12400.00          0.1606          0.4264 
       12450.00          0.1492          0.4284 
       12500.00          0.1577          0.4117 
       12550.00          0.1379          0.4273 
       12600.00          0.1348          0.4219 
       12650.00          0.0984          0.4276 
       12700.00          0.0774          0.4423 
       12750.00          0.0914          0.4320 
       12800.00          0.0359          0.4436 
       12850.00          0.0474          0.4489 
       12900.00          0.0416          0.4460 
       12950.00          0.0662          0.4475 
       13000.00          0.0752          0.4424 
       13050.00          0.1261          0.4406 
       13100.00          0.1196          0.4239 
       13150.00          0.0832          0.4396 
       13200.00          0.0638          0.4557 
       13250.00          0.0634          0.4561 
       13300.00          0.0601          0.4477 
       13350.00          0.1104          0.4276 
       13400.00          0.1276          0.4207 
       13450.00          0.0747          0.4425 
       13500.00          0.0654          0.4424 
       13550.00          0.1285          0.4238 
       13600.00          0.1197          0.4302 
       13650.00          0.0467          0.4426 
       13700.00          0.1200          0.4326 
       13750.00          0.0451          0.4543 
       13800.00          0.1002          0.4341 
       13850.00          0.0780          0.4447 
       13900.00          0.0376          0.4555 
       13950.00          0.0341          0.4477 
       14000.00          0.0953          0.4377 
       14050.00          0.0423          0.4499 
       14100.00          0.0430          0.4410 
       14150.00          0.0976          0.4329 
       14200.00          0.0658          0.4360 
       14250.00          0.0869          0.4398 
       14300.00          0.0655          0.4308 
       14350.00          0.1005          0.4397 
       14400.00          0.0801          0.4494 
       14450.00          0.1165          0.4136 
       14500.00          0.0788          0.4289 
       14550.00          0.1190          0.4543 
       14600.00          0.1604          0.4373 
       14650.00          0.1729          0.4332 
       14700.00          0.2009          0.4165 
       14750.00          0.1872          0.4216 
       14800.00          0.1757          0.4178 
       14850.00          0.1813          0.4055 
       14900.00          0.1966          0.4195 
       14950.00          0.2004          0.4276 
       15000.00          0.1667          0.4275 
       15050.00          0.1883          0.4199 
       15100.00          0.1958          0.4264 
       15150.00          0.1791          0.4277 
       15200.00          0.1791          0.4235 
       15250.00          0.1834          0.4290 
       15300.00          0.1982          0.4334 
       15350.00          0.1986          0.4102 
       15400.00          0.2002          0.4271 
       15450.00          0.1768          0.4302 
       15500.00          0.2100          0.4173 
       15550.00          0.1970          0.4132 
       15600.00          0.1612          0.4092 
       15650.00          0.1513          0.4215 
       15700.00          0.1838          0.4320 
       15750.00          0.1896          0.4244 
       15800.00          0.1875          0.4157 
       15850.00          0.2285          0.4183 
       15900.00          0.1841          0.4307 
       15950.00          0.1830          0.4169 
       16000.00          0.2238          0.4009 
       16050.00          0.2429          0.4085 
       16100.00          0.2041          0.4029 
       16150.00          0.1810          0.4319 
       16200.00          0.2021          0.4154 
       16250.00          0.2035          0.4017 
       16300.00          0.2017          0.4133 
       16350.00          0.2086          0.4217 
       16400.00          0.1786          0.4296 
       16450.00          0.1950          0.4129 
       16500.00          0.2176          0.4135 
       16550.00          0.1897          0.4259 
       16600.00          0.2335          0.3906 
       16650.00          0.1826          0.4216 
       16700.00          0.1703          0.4299 
       16750.00          0.1584          0.4356 
       16800.00          0.2064          0.4198 
       16850.00          0.1864          0.4239 
       16900.00          0.1715          0.4239 
       16950.00          0.1835          0.4255 
       17000.00          0.1669          0.4282 
       17050.00          0.1807          0.4294 
       17100.00          0.1818          0.4222 
       17150.00          0.1817          0.4250 
       17200.00          0.1812          0.4163 
       17250.00          0.2117          0.4126 
       17300.00          0.2164          0.3979 
       17350.00          0.1732          0.4223 
       17400.00          0.1609          0.4361 
       17450.00          0.2198          0.4021 
       17500.00          0.2145          0.4137 
       17550.00          0.2410          0.3941 
       17600.00          0.2068          0.4058 
       17650.00          0.1992          0.4218 
       17700.00          0.1907          0.4174 
       17750.00          0.2152          0.4215 
       17800.00          0.1876          0.4223 
       17850.00          0.1587          0.4351 
       17900.00          0.0782          0.4408 
       17950.00          0.0553          0.4363 
       18000.00          0.0996          0.4510 
       18050.00          0.0537          0.4447 
       18100.00          0.1418          0.4259 
       18150.00          0.0363          0.4446 
       18200.00          0.0622          0.4567 
       18250.00          0.0799          0.4377 
       18300.00          0.0588          0.4512 
       18350.00          0.0588          0.4504 
       18400.00          0.0399          0.4481 
       18450.00          0.0653          0.4415 
       18500.00          0.0601          0.4438 
       18550.00          0.0767          0.4204 
       18600.00          0.1299          0.4325 
       18650.00          0.1177          0.4188 
       18700.00          0.0541          0.4421 
       18750.00          0.0799          0.4458 
       18800.00          0.0578          0.4523 
       18850.00          0.0277          0.4455 
       18900.00          0.0956          0.4352 
       18950.00          0.0723          0.4355 
       19000.00          0.0684          0.4351 
       19050.00          0.0745          0.4337 
       19100.00          0.0907          0.4454 
       19150.00          0.0643          0.4385 
       19200.00          0.0602          0.4407 
       19250.00          0.0722          0.4524 
       19300.00          0.0755          0.4289 
       19350.00          0.0985          0.4380 
       19400.00          0.0801          0.4328 
       19450.00          0.0938          0.4437 
       19500.00          0.0542          0.4424 
       19550.00          0.0494          0.4487 
       19600.00          0.0588          0.4507 
       19650.00          0.0530          0.4366 
       19700.00          0.0938          0.4482 
       19750.00          0.0430          0.4417 
       19800.00          0.0290          0.4466 
       19850.00          0.0515          0.4432 
       19900.00          0.0801          0.4499 
       19950.00          0.0276          0.4491 
       20000.00          0.0280          0.4487 
       20050.00          0.0467          0.4448 
       20100.00          0.0690          0.4400 
       20150.00          0.1220          0.4290 
       20200.00          0.0651          0.4435 
       20250.00          0.0713          0.4384 
       20300.00          0.0653          0.4380 
       20350.00          0.0526          0.4416 
       20400.00          0.0530          0.4554 
       20450.00          0.0800          0.4378 
       20500.00          0.0481          0.4496 
       20550.00          0.0682          0.4576 
       20600.00          0.0623          0.4489 
       20650.00          0.0989          0.4424 
       20700.00          0.0549          0.4475 
       20750.00          0.0853          0.4388 
       20800.00          0.0673          0.4470 
       20850.00          0.0713          0.4404 
       20900.00          0.0388          0.4496 
       20950.00          0.0523          0.4405 
       21000.00          0.0660          0.4354 
       21050.00          0.0976          0.4471 
       21100.00          0.0734          0.4393 
       21150.00          0.0550          0.4502 
       21200.00          0.0818          0.4570 
       21250.00          0.0570          0.4406 
       21300.00          0.0674          0.4512 
       21350.00          0.1612          0.4051 
       21400.00          0.1195          0.4285 
       21450.00          0.1047          0.4333 
       21500.00          0.1264          0.4198 
       21550.00          0.0649          0.4394 
       21600.00          0.0694          0.4366 
       21650.00          0.0590          0.4374 
       21700.00          0.0620          0.4484 
       21750.00          0.0660          0.4427 
       21800.00          0.0703          0.4485 
       21850.00          0.0800          0.4547 
       21900.00          0.0454          0.4471 
       21950.00          0.0798          0.4357 
       22000.00          0.0754          0.4467 
       22050.00          0.0549          0.4577 
       22100.00          0.0515          0.4401 
       22150.00          0.0484          0.4375 
       22200.00          0.0450          0.4457 
       22250.00          0.0244          0.4550 
       22300.00          0.0305          0.4462 
       22350.00          0.0773          0.4292 
       22400.00          0.0968          0.4397 
       22450.00          0.0715          0.4474 
       22500.00          0.0568          0.4440 
       22550.00          0.0790          0.4336 
       22600.00          0.0551          0.4457 
       22650.00          0.0650          0.4344 
       22700.00          0.0723          0.4391 
       22750.00          0.0931          0.4428 
       22800.00          0.0739          0.4363 
       22850.00          0.0760          0.4411 
       22900.00          0.1232          0.4241 
       22950.00          0.1064          0.4404 
       23000.00          0.1013          0.4370 
       23050.00          0.0349          0.4537 
       23100.00          0.0673          0.4539 
       23150.00          0.0893          0.4381 
       23200.00          0.0902          0.4360 
       23250.00          0.0833          0.4385 
       23300.00          0.0519          0.4399 
       23350.00          0.0501          0.4513 
       23400.00          0.1054          0.4290 
       23450.00          0.0480          0.4515 
       23500.00          0.0589          0.4466 
       23550.00          0.0664          0.4355 
       23600.00          0.0778          0.4379 
       23650.00          0.0761          0.4456 
       23700.00          0.1362          0.4161 
       23750.00          0.1617          0.4054 
       23800.00          0.0643          0.4323 
       23850.00          0.0744          0.4577 
       23900.00          0.0432          0.4465 
       23950.00          0.0545          0.4453 
       24000.00          0.0735          0.4553 
       24050.00          0.0863          0.4295 
       24100.00          0.0466          0.4638 
       24150.00          0.0568          0.4495 
       24200.00          0.0586          0.4489 
       24250.00          0.0756          0.4574 
       24300.00          0.0311          0.4516 
       24350.00          0.0739          0.4456 
       24400.00          0.1081          0.4385 
       24450.00          0.0940          0.4419 
       24500.00          0.0716          0.4433 
       24550.00          0.1431          0.4124 
       24600.00          0.1122          0.4364 
       24650.00          0.0746          0.4452 
       24700.00          0.0678          0.4531 
       24750.00          0.0801          0.4424 
       24800.00          0.0713          0.4448 
       24850.00          0.0957          0.4285 
       24900.00          0.0539          0.4489 
       24950.00          0.0493          0.4392 
       25000.00          0.0659          0.4492 
       25050.00          0.0736          0.4423 
       25100.00          0.0622          0.4461 
       25150.00          0.0575          0.4514 
       25200.00          0.0785          0.4395 
       25250.00          0.1121          0.4327 
       25300.00          0.1019          0.4458 
       25350.00          0.0569          0.4376 
       25400.00          0.0672          0.4428 
       25450.00          0.0641          0.4454 
       25500.00          0.0705          0.4330 
       25550.00          0.0657          0.4392 
       25600.00          0.0822          0.4508 
       25650.00          0.0857          0.4441 
       25700.00          0.0819          0.4405 
       25750.00          0.0603          0.4380 
       25800.00          0.0969          0.4298 
       25850.00          0.0491          0.4540 
       25900.00          0.0801          0.4410 
       25950.00          0.0953          0.4453 
       26000.00          0.0745          0.4338 
       26050.00          0.0632          0.4421 
       26100.00          0.0998          0.4306 
       26150.00          0.0744          0.4427 
       26200.00          0.0419          0.4418 
       26250.00          0.0434          0.4494 
       26300.00          0.0843          0.4401 
       26350.00          0.0812          0.4318 
       26400.00          0.0792          0.4429 
       26450.00          0.0580          0.4414 
       26500.00          0.0534          0.4441 
       26550.00          0.0856          0.4366 
       26600.00          0.0607          0.4360 
       26650.00          0.0582          0.4427 
       26700.00          0.1104          0.4251 
       26750.00          0.0602          0.4456 
       26800.00          0.0711          0.4443 
       26850.00          0.0628          0.4473 
       26900.00          0.0697          0.4542 
       26950.00          0.0611          0.4580 
       27000.00          0.0759          0.4288 
       27050.00          0.0428          0.4475 
       27100.00          0.0646          0.4382 
       27150.00          0.0427          0.4509 
       27200.00          0.0678          0.4519 
       27250.00          0.1459          0.4136 
       27300.00          0.0639          0.4493 
       27350.00          0.1287          0.4279 
       27400.00          0.1148          0.4270 
       27450.00          0.1099          0.4364 
       27500.00          0.1091          0.4367 
       27550.00          0.0669          0.4389 
       27600.00          0.1013          0.4397 
       27650.00          0.0701          0.4320 
       27700.00          0.0767          0.4339 
       27750.00          0.0707          0.4398 
       27800.00          0.0568          0.4459 
       27850.00          0.0639          0.4486 
       27900.00          0.0401          0.4374 
       27950.00          0.0641          0.4387 
       28000.00          0.1057          0.4318 
       28050.00          0.0835          0.4468 
       28100.00          0.0305          0.4533 
       28150.00          0.0604          0.4436 
       28200.00          0.0669          0.4362 
       28250.00          0.1247          0.4281 
       28300.00          0.0795          0.4383 
       28350.00          0.0558          0.4446 
       28400.00          0.0558          0.4397 
       28450.00          0.0597          0.4536 
       28500.00          0.0752          0.4567 
       28550.00          0.0348          0.4455 
       28600.00          0.0384          0.4333 
       28650.00          0.0644          0.4525 
       28700.00          0.0493          0.4423 
       28750.00          0.0785          0.4451 
       28800.00          0.1211          0.4266 
       28850.00          0.0616          0.4544 
       28900.00          0.0740          0.4170 
       28950.00          0.0613          0.4345 
       29000.00          0.0866          0.4426 
       29050.00          0.0732          0.4356 
       29100.00          0.0465          0.4396 
       29150.00          0.0852          0.4407 
       29200.00          0.0722          0.4486 
       29250.00          0.0529          0.4482 
       29300.00          0.0647          0.4398 
       29350.00          0.0883          0.4622 
       29400.00          0.0675          0.4299 
       29450.00          0.0574          0.4560 
       29500.00          0.0298          0.4549 
       29550.00          0.0449          0.4578 
       29600.00          0.0991          0.4290 
       29650.00          0.0940          0.4476 
       29700.00          0.0816          0.4385 
       29750.00          0.0672          0.4504 
       29800.00          0.0690          0.4337 
       29850.00          0.1268          0.4274 
       29900.00          0.0578          0.4422 
       29950.00          0.0899          0.4537 
       30000.00          0.0644          0.4397 
       30050.00          0.0537          0.4496 
       30100.00          0.0821          0.4445 
       30150.00          0.0439          0.4524 
       30200.00          0.0444          0.4467 
       30250.00          0.0427          0.4445 
       30300.00          0.1308          0.4180 
       30350.00          0.0968          0.4341 
       30400.00          0.0820          0.4419 
       30450.00          0.0626          0.4521 
       30500.00          0.0607          0.4494 
       30550.00          0.0642          0.4493 
       30600.00          0.1003          0.4335 
       30650.00          0.0700          0.4384 
       30700.00          0.0653          0.4454 
       30750.00          0.0514          0.4411 
       30800.00          0.0868          0.4340 
       30850.00          0.1176          0.4197 
       30900.00          0.0477          0.4566 
       30950.00          0.0534          0.4415 
       31000.00          0.0531          0.4456 
       31050.00          0.1112          0.4367 
       31100.00          0.0682          0.4393 
       31150.00          0.0741          0.4512 
       31200.00          0.0805          0.4410 
       31250.00          0.0581          0.4349 
       31300.00          0.0732          0.4479 
       31350.00          0.0726          0.4432 
       31400.00          0.1109          0.4300 
       31450.00          0.1134          0.4207 
       31500.00          0.0871          0.4322 
       31550.00          0.0678          0.4372 
       31600.00          0.0782          0.4479 
       31650.00          0.0566          0.4353 
       31700.00          0.0810          0.4449 
       31750.00          0.0935          0.4426 
       31800.00          0.0717          0.4521 
       31850.00          0.0719          0.4339 
       31900.00          0.0524          0.4549 
       31950.00          0.0676          0.4400 
       32000.00          0.0805          0.4436 
       32050.00          0.0815          0.4339 
       32100.00          0.0920          0.4339 
       32150.00          0.0695          0.4404 
       32200.00          0.0726          0.4338 
       32250.00          0.0803          0.4419 
       32300.00          0.0498          0.4718 
       32350.00          0.0487          0.4585 
       32400.00          0.1478          0.4274 
       32450.00          0.1708          0.4087 
       32500.00          0.1171          0.4243 
       32550.00          0.0438          0.4431 
       32600.00          0.0689          0.4515 
       32650.00          0.0802          0.4348 
       32700.00          0.0452          0.4543 
       32750.00          0.0585          0.4422 
       32800.00          0.0557          0.4550 
       32850.00          0.1052          0.4354 
       32900.00          0.0627          0.4474 
       32950.00          0.0697          0.4430 
       33000.00          0.0977          0.4471 
       33050.00          0.0748          0.4412 
       33100.00          0.0457          0.4416 
       33150.00          0.0808          0.4254 
       33200.00          0.0735          0.4308 
       33250.00          0.0687          0.4508 
       33300.00          0.0538          0.4430 
       33350.00          0.0563          0.4391 
       33400.00          0.0759          0.4364 
       33450.00          0.0572          0.4495 
       33500.00          0.0812          0.4383 
       33550.00          0.0692          0.4528 
       33600.00          0.0701          0.4326 
       33650.00          0.0394          0.4473 
       33700.00          0.0574          0.4421 
       33750.00          0.0559          0.4410 
       33800.00          0.1035          0.4422 
       33850.00          0.0501          0.4444 
       33900.00          0.0523          0.4619 
       33950.00          0.0859          0.4416 
       34000.00          0.0851          0.4455 
       34050.00          0.0620          0.4565 
       34100.00          0.0541          0.4559 
       34150.00          0.0589          0.4410 
       34200.00          0.0608          0.4479 
       34250.00          0.0802          0.4381 
       34300.00          0.0807          0.4466 
       34350.00          0.0915          0.4402 
       34400.00          0.0478          0.4434 
       34450.00          0.0557          0.4657 
       34500.00          0.0913          0.4372 
       34550.00          0.0834          0.4351 
       34600.00          0.0662          0.4436 
       34650.00          0.0743          0.4529 
       34700.00          0.0725          0.4407 
       34750.00          0.0324          0.4406 
       34800.00          0.1019          0.4317 
       34850.00          0.0925          0.4539 
       34900.00          0.1236          0.4307 
       34950.00          0.0615          0.4510 
       35000.00          0.0533          0.4390 
       35050.00          0.0817          0.4510 
       35100.00          0.0513          0.4389 
       35150.00          0.0790          0.4532 
       35200.00          0.0659          0.4405 
       35250.00          0.0216          0.4445 
       35300.00          0.0733          0.4499 
       35350.00          0.0546          0.4456 
       35400.00          0.0492          0.4419 
       35450.00          0.0796          0.4470 
       35500.00          0.0717          0.4404 
       35550.00          0.0899          0.4362 
       35600.00          0.0489          0.4407 
       35650.00          0.0590          0.4391 
       35700.00          0.0528          0.4443 
       35750.00          0.0678          0.4621 
       35800.00          0.0517          0.4410 
       35850.00          0.0808          0.4365 
       35900.00          0.0809          0.4503 
       35950.00          0.0712          0.4512 
       36000.00          0.0850          0.4345 
       36050.00          0.0706          0.4320 
       36100.00          0.0822          0.4329 
       36150.00          0.1437          0.4188 
       36200.00          0.1436          0.4218 
       36250.00          0.0715          0.4509 
       36300.00          0.0798          0.4589 
       36350.00          0.0842          0.4223 
       36400.00          0.0595          0.4469 
       36450.00          0.0541          0.4376 
       36500.00          0.0527          0.4351 
       36550.00          0.0876          0.4254 
       36600.00          0.0398          0.4370 
       36650.00          0.0788          0.4539 
       36700.00          0.0517          0.4467 
       36750.00          0.0459          0.4379 
       36800.00          0.0912          0.4320 
       36850.00          0.0493          0.4414 
       36900.00          0.0414          0.4526 
       36950.00          0.0448          0.4492 
       37000.00          0.0627          0.4492 
       37050.00          0.0517          0.4519 
       37100.00          0.0572          0.4456 
       37150.00          0.0702          0.4462 
       37200.00          0.0680          0.4384 
       37250.00          0.0708          0.4522 
       37300.00          0.0320          0.4451 
       37350.00          0.0646          0.4603 
       37400.00          0.0839          0.4391 
       37450.00          0.0675          0.4387 
       37500.00          0.0835          0.4392 
       37550.00          0.0604          0.4399 
       37600.00          0.0651          0.4413 
       37650.00          0.0607          0.4489 
       37700.00          0.0768          0.4510 
       37750.00          0.0282          0.4447 
       37800.00          0.0333          0.4451 
       37850.00          0.0582          0.4518 
       37900.00          0.0524          0.4484 
       37950.00          0.0536          0.4364 
       38000.00          0.0414          0.4560 
       38050.00          0.0361          0.4482 
       38100.00          0.0975          0.4263 
       38150.00          0.0547          0.4445 
       38200.00          0.0695          0.4410 
       38250.00          0.0433          0.4557 
       38300.00          0.0522          0.4527 
       38350.00          0.0984          0.4305 
       38400.00          0.0863          0.4453 
       38450.00          0.0487          0.4538 
       38500.00          0.0907          0.4512 
       38550.00          0.0625          0.4459 
       38600.00          0.0265          0.4436 
       38650.00          0.0769          0.4385 
       38700.00          0.0760          0.4427 
       38750.00          0.0536          0.4471 
       38800.00          0.0616          0.4485 
       38850.00          0.0739          0.4493 
       38900.00          0.0709          0.4315 
       38950.00          0.0765          0.4340 
       39000.00          0.0629          0.4405 
       39050.00          0.0873          0.4352 
       39100.00          0.0545          0.4433 
       39150.00          0.0727          0.4527 
       39200.00          0.1054          0.4384 
       39250.00          0.0535          0.4436 
       39300.00          0.0650          0.4408 
       39350.00          0.0808          0.4423 
       39400.00          0.0637          0.4359 
       39450.00          0.0581          0.4385 
       39500.00          0.0600          0.4432 
       39550.00          0.0996          0.4433 
       39600.00          0.0362          0.4468 
       39650.00          0.0360          0.4517 
       39700.00          0.0485          0.4452 
       39750.00          0.1318          0.4280 
       39800.00          0.0842          0.4470 
       39850.00          0.0676          0.4414 
       39900.00          0.0709          0.4328 
       39950.00          0.0687          0.4518 
       40000.00          0.0532          0.4582 
       40050.00          0.0943          0.4492 
       40100.00          0.0711          0.4502 
       40150.00          0.0582          0.4339 
       40200.00          0.0614          0.4562 
       40250.00          0.0864          0.4464 
       40300.00          0.0463          0.4408 
       40350.00          0.1211          0.4205 
       40400.00          0.1212          0.4244 
       40450.00          0.0871          0.4430 
       40500.00          0.0573          0.4506 
       40550.00          0.0653          0.4467 
       40600.00          0.0611          0.4481 
       40650.00          0.0501          0.4594 
       40700.00          0.0980          0.4374 
       40750.00          0.1340          0.4203 
       40800.00          0.0782          0.4345 
       40850.00          0.0435          0.4365 
       40900.00          0.0373          0.4497 
       40950.00          0.0535          0.4536 
       41000.00          0.0381          0.4503 
       41050.00          0.0639          0.4507 
       41100.00          0.0619          0.4471 
       41150.00          0.0826          0.4440 
       41200.00          0.0766          0.4560 
       41250.00          0.1126          0.4320 
       41300.00          0.0984          0.4369 
       41350.00          0.1316          0.4238 
       41400.00          0.1128          0.4253 
       41450.00          0.0838          0.4409 
       41500.00          0.0765          0.4447 
       41550.00          0.1110          0.4278 
       41600.00          0.0654          0.4286 
       41650.00          0.0475          0.4537 
       41700.00          0.0725          0.4435 
       41750.00          0.0564          0.4452 
       41800.00          0.0638          0.4431 
       41850.00          0.0493          0.4433 
       41900.00          0.0621          0.4492 
       41950.00          0.0399          0.4540 
       42000.00          0.0997          0.4388 
       42050.00          0.0658          0.4483 
       42100.00          0.0980          0.4413 
       42150.00          0.0696          0.4465 
       42200.00          0.0835          0.4383 
       42250.00          0.0635          0.4395 
       42300.00          0.0568          0.4398 
       42350.00          0.0558          0.4490 
       42400.00          0.0762          0.4372 
       42450.00          0.0344          0.4605 
       42500.00          0.0430          0.4505 
       42550.00          0.0651          0.4386 
       42600.00          0.0743          0.4446 
       42650.00          0.1221          0.4287 
       42700.00          0.0720          0.4548 
       42750.00          0.0415          0.4478 
       42800.00          0.0608          0.4583 
       42850.00          0.0913          0.4347 
       42900.00          0.0522          0.4425 
       42950.00          0.0732          0.4472 
       43000.00          0.0589          0.4470 
       43050.00          0.0620          0.4309 
       43100.00          0.0419          0.4477 
       43150.00          0.0627          0.4536 
       43200.00          0.0651          0.4536 
       43250.00          0.0920          0.4318 
       43300.00          0.0743          0.4398 
       43350.00          0.0727          0.4415 
       43400.00          0.0666          0.4352 
       43450.00          0.0533          0.4440 
       43500.00          0.0685          0.4437 
       43550.00          0.0526          0.4403 
       43600.00          0.0645          0.4450 
       43650.00          0.0786          0.4525 
       43700.00          0.0536          0.4425 
       43750.00          0.0602          0.4492 
       43800.00          0.0349          0.4495 
       43850.00          0.1076          0.4424 
       43900.00          0.0772          0.4463 
       43950.00          0.0613          0.4391 
       44000.00          0.0854          0.4443 
       44050.00          0.0683          0.4512 
       44100.00          0.0706          0.4447 
       44150.00          0.0932          0.4361 
       44200.00          0.0639          0.4365 
       44250.00          0.0523          0.4520 
       44300.00          0.1132          0.4404 
       44350.00          0.0769          0.4421 
       44400.00          0.0656          0.4393 
       44450.00          0.0741          0.4468 
       44500.00          0.0507          0.4354 
       44550.00          0.0897          0.4351 
       44600.00          0.0860          0.4474 
       44650.00          0.0626          0.4421 
       44700.00          0.0562          0.4386 
       44750.00          0.0579          0.4483 
       44800.00          0.0660          0.4446 
       44850.00          0.0571          0.4456 
       44900.00          0.0751          0.4365 
       44950.00          0.0505          0.4525 
       45000.00          0.0497          0.4523 
       45050.00          0.0601          0.4495 
       45100.00          0.0949          0.4233 
       45150.00          0.0509          0.4509 
       45200.00          0.0653          0.4321 
       45250.00          0.0920          0.4482 
       45300.00          0.0612          0.4424 
       45350.00          0.1409          0.4108 
       45400.00          0.1269          0.4193 
       45450.00          0.0594          0.4537 
       45500.00          0.1077          0.4273 
       45550.00          0.0766          0.4377 
       45600.00          0.0954          0.4387 
       45650.00          0.0662          0.4285 
       45700.00          0.0481          0.4531 
       45750.00          0.0499          0.4312 
       45800.00          0.0563          0.4547 
       45850.00          0.0389          0.4501 
       45900.00          0.0572          0.4570 
       45950.00          0.0742          0.4416 
       46000.00          0.0854          0.4414 
       46050.00          0.0804          0.4425 
       46100.00          0.0364          0.4415 
       46150.00          0.0496          0.4458 
       46200.00          0.0379          0.4533 
       46250.00          0.0652          0.4376 
       46300.00          0.0593          0.4576 
       46350.00          0.0684          0.4362 
       46400.00          0.0409          0.4543 
       46450.00          0.0770          0.4564 
       46500.00          0.1039          0.4348 
       46550.00          0.0672          0.4332 
       46600.00          0.0760          0.4449 
       46650.00          0.0552          0.4525 
       46700.00          0.0667          0.4482 
       46750.00          0.0677          0.4450 
       46800.00          0.0515          0.4532 
       46850.00          0.0782          0.4362 
       46900.00          0.0588          0.4422 
       46950.00          0.0701          0.4475 
       47000.00          0.0803          0.4299 
       47050.00          0.1163          0.4299 
       47100.00          0.1218          0.4351 
       47150.00          0.0683          0.4459 
       47200.00          0.0654          0.4411 
       47250.00          0.0370          0.4513 
       47300.00          0.0734          0.4432 
       47350.00          0.0686          0.4367 
       47400.00          0.0708          0.4349 
       47450.00          0.0910          0.4403 
       47500.00          0.0409          0.4431 
       47550.00          0.0430          0.4472 
       47600.00          0.0300          0.4597 
       47650.00          0.0577          0.4452 
       47700.00          0.1186          0.4230 
       47750.00          0.1349          0.4250 
       47800.00          0.0616          0.4482 
       47850.00          0.0747          0.4469 
       47900.00          0.0943          0.4465 
       47950.00          0.1315          0.4164 
       48000.00          0.0975          0.4454 
       48050.00          0.0896          0.4392 
       48100.00          0.0846          0.4478 
       48150.00          0.0469          0.4536 
       48200.00          0.0488          0.4538 
       48250.00          0.0705          0.4393 
       48300.00          0.0620          0.4493 
       48350.00          0.0631          0.4486 
       48400.00          0.0631          0.4543 
       48450.00          0.0910          0.4473 
       48500.00          0.0507          0.4467 
       48550.00          0.0705          0.4556 
       48600.00          0.1005          0.4389 
       48650.00          0.0726          0.4567 
       48700.00          0.0670          0.4471 
       48750.00          0.0519          0.4326 
       48800.00          0.0328          0.4446 
       48850.00          0.0651          0.4482 
       48900.00          0.0720          0.4379 
       48950.00          0.0899          0.4291 
       49000.00          0.0558          0.4362 
       49050.00          0.0758          0.4473 
       49100.00          0.0469          0.4492 
       49150.00          0.0662          0.4544 
       49200.00          0.0554          0.4555 
       49250.00          0.0756          0.4302 
       49300.00          0.0614          0.4485 
       49350.00          0.0650          0.4370 
       49400.00          0.0510          0.4454 
       49450.00          0.0641          0.4428 
       49500.00          0.0605          0.4451 
       49550.00          0.0593          0.4353 
       49600.00          0.0659          0.4402 
       49650.00          0.0948          0.4414 
       49700.00          0.0659          0.4396 
       49750.00          0.0498          0.4403 
       49800.00          0.0836          0.4497 
       49850.00          0.0711          0.4424 
       49900.00          0.1110          0.4315 
       49950.00          0.0711          0.4498 
       50000.00          0.0771          0.4400 
       50050.00          0.0852          0.4404 
       50100.00          0.0864          0.4417 
       50150.00          0.0831          0.4339 
       50200.00          0.0610          0.4413 
       50250.00          0.0544          0.4525 
       50300.00          0.0654          0.4370 
       50350.00          0.1068          0.4355 
       50400.00          0.0634          0.4422 
       50450.00          0.0524          0.4468 
       50500.00          0.0468          0.4418 
       50550.00          0.0632          0.4422 
       50600.00          0.0624          0.4394 
       50650.00          0.0670          0.4466 
       50700.00          0.0771          0.4450 
       50750.00          0.0716          0.4411 
       50800.00          0.0450          0.4382 
       50850.00          0.0619          0.4452 
       50900.00          0.0988          0.4356 
       50950.00          0.0793          0.4395 
       51000.00          0.0527          0.4506 
       51050.00          0.0576          0.4508 
       51100.00          0.1059          0.4371 
       51150.00          0.0575          0.4333 
       51200.00          0.0607          0.4390 
       51250.00          0.1126          0.4297 
       51300.00          0.1259          0.4255 
       51350.00          0.0711          0.4468 
       51400.00          0.0645          0.4486 
       51450.00          0.0826          0.4545 
       51500.00          0.0679          0.4413 
       51550.00          0.0504          0.4391 
       51600.00          0.0688          0.4537 
       51650.00          0.0579          0.4446 
       51700.00          0.0619          0.4291 
       51750.00          0.0699          0.4377 
       51800.00          0.0290          0.4406 
       51850.00          0.0600          0.4470 
       51900.00          0.0615          0.4420 
       51950.00          0.0585          0.4474 
       52000.00          0.0433          0.4566 
       52050.00          0.0757          0.4373 
       52100.00          0.0677          0.4423 
       52150.00          0.0686          0.4523 
       52200.00          0.1500          0.4128 
       52250.00          0.1291          0.4235 
       52300.00          0.0997          0.4463 
       52350.00          0.0752          0.4473 
       52400.00          0.0608          0.4501 
       52450.00          0.0531          0.4401 
       52500.00          0.0750          0.4506 
       52550.00          0.0739          0.4440 
       52600.00          0.0641          0.4452 
       52650.00          0.0557          0.4440 
       52700.00          0.0702          0.4476 
       52750.00          0.0635          0.4374 
       52800.00          0.0854          0.4399 
       52850.00          0.0822          0.4414 
       52900.00          0.0729          0.4548 
       52950.00          0.0605          0.4564 
       53000.00          0.0690          0.4432 
       53050.00          0.0604          0.4354 
       53100.00          0.0634          0.4526 
       53150.00          0.0596          0.4405 
       53200.00          0.0609          0.4550 
       53250.00          0.0569          0.4365 
       53300.00          0.0903          0.4310 
       53350.00          0.1056          0.4327 
       53400.00          0.0668          0.4561 
       53450.00          0.0651          0.4389 
       53500.00          0.0850          0.4553 
       53550.00          0.0789          0.4493 
       53600.00          0.0866          0.4346 
       53650.00          0.0872          0.4300 
       53700.00          0.0800          0.4396 
       53750.00          0.0801          0.4352 
       53800.00          0.0614          0.4530 
       53850.00          0.0677          0.4498 
       53900.00          0.0612          0.4470 
       53950.00          0.0548          0.4537 
       54000.00          0.0828          0.4345 
       54050.00          0.1012          0.4149 
       54100.00          0.0348          0.4541 
       54150.00          0.0255          0.4510 
       54200.00          0.0532          0.4505 
       54250.00          0.0338          0.4452 
       54300.00          0.0361          0.4494 
       54350.00          0.0313          0.4483 
       54400.00          0.0505          0.4455 
       54450.00          0.0855          0.4358 
       54500.00          0.1011          0.4285 
       54550.00          0.0626          0.4511 
       54600.00          0.0347          0.4612 
       54650.00          0.0377          0.4394 
       54700.00          0.0455          0.4446 
       54750.00          0.0620          0.4482 
       54800.00          0.0564          0.4473 
       54850.00          0.0588          0.4453 
       54900.00          0.1168          0.4303 
       54950.00          0.0674          0.4513 
       55000.00          0.0590          0.4491 
       55050.00          0.0509          0.4414 
       55100.00          0.0500          0.4351 
       55150.00          0.0581          0.4520 
       55200.00          0.0781          0.4509 
       55250.00          0.0524          0.4625 
       55300.00          0.0674          0.4382 
       55350.00          0.0887          0.4414 
       55400.00          0.0514          0.4471 
       55450.00          0.0700          0.4385 
       55500.00          0.0600          0.4473 
       55550.00          0.0543          0.4429 
       55600.00          0.0340          0.4507 
       55650.00          0.0687          0.4359 
       55700.00          0.0885          0.4509 
       55750.00          0.0989          0.4366 
       55800.00          0.0628          0.4421 
       55850.00          0.0646          0.4551 
       55900.00          0.0414          0.4653 
       55950.00          0.0864          0.4480 
       56000.00          0.1131          0.4231 
       56050.00          0.1028          0.4320 
       56100.00          0.0872          0.4520 
       56150.00          0.0766          0.4427 
       56200.00          0.0641          0.4425 
       56250.00          0.0580          0.4418 
       56300.00          0.0967          0.4520 
       56350.00          0.0823          0.4299 
       56400.00          0.0672          0.4371 
       56450.00          0.0578          0.4546 
       56500.00          0.0433          0.4431 
       56550.00          0.0807          0.4408 
       56600.00          0.0562          0.4551 
       56650.00          0.0743          0.4469 
       56700.00          0.0611          0.4438 
       56750.00          0.0608          0.4355 
       56800.00          0.0720          0.4301 
       56850.00          0.0678          0.4386 
       56900.00          0.0692          0.4593 
       56950.00          0.0564          0.4501 
       57000.00          0.0618          0.4355 
       57050.00          0.0522          0.4443 
       57100.00          0.0573          0.4545 
       57150.00          0.0724          0.4403 
       57200.00          0.0741          0.4418 
       57250.00          0.0624          0.4488 
       57300.00          0.0669          0.4423 
       57350.00          0.0634          0.4363 
       57400.00          0.1358          0.4151 
       57450.00          0.1243          0.4179 
       57500.00          0.0896          0.4346 
       57550.00          0.0840          0.4478 
       57600.00          0.0780          0.4416 
       57650.00          0.0725          0.4379 
       57700.00          0.1073          0.4315 
       57750.00          0.0682          0.4477 
       57800.00          0.1090          0.4314 
       57850.00          0.1295          0.4163 
       57900.00          0.0712          0.4419 
       57950.00          0.0626          0.4522 
       58000.00          0.1039          0.4323 
       58050.00          0.0950          0.4397 
       58100.00          0.0725          0.4631 
       58150.00          0.0715          0.4691 
       58200.00          0.0999          0.4390 
       58250.00          0.1062          0.4324 
       58300.00          0.1442          0.4186 
       58350.00          0.1433          0.4089 
       58400.00          0.0898          0.4340 
       58450.00          0.0536          0.4403 
       58500.00          0.0711          0.4418 
       58550.00          0.0835          0.4451 
       58600.00          0.1283          0.4313 
       58650.00          0.0481          0.4506 
       58700.00          0.0789          0.4431 
       58750.00          0.0823          0.4450 
       58800.00          0.0987          0.4312 
       58850.00          0.0830          0.4393 
       58900.00          0.0667          0.4453 
       58950.00          0.0504          0.4377 
       59000.00          0.0656          0.4330 
       59050.00          0.0421          0.4504 
       59100.00          0.0662          0.4375 
       59150.00          0.0768          0.4414 
       59200.00          0.0542          0.4398 
       59250.00          0.1085          0.4220 
       59300.00          0.0673          0.4549 
       59350.00          0.0675          0.4507 
       59400.00          0.0569          0.4531 
       59450.00          0.0795          0.4504 
       59500.00          0.0949          0.4445 
       59550.00          0.0664          0.4515 
       59600.00          0.0565          0.4484 
       59650.00          0.0825          0.4280 
       59700.00          0.0448          0.4509 
       59750.00          0.0321          0.4498 
       59800.00          0.0594          0.4375 
       59850.00          0.0393          0.4432 
       59900.00          0.0354          0.4548 
       59950.00          0.0547          0.4386 
       60000.00          0.0645          0.4445 
       60050.00          0.0281          0.4457 
       60100.00          0.0563          0.4507 
       60150.00          0.0771          0.4416 
       60200.00          0.0981          0.4416 
       60250.00          0.0758          0.4333 
       60300.00          0.0586          0.4477 
       60350.00          0.0483          0.4441 
       60400.00          0.0654          0.4410 
       60450.00          0.0633          0.4478 
       60500.00          0.0394          0.4425 
       60550.00          0.0779          0.4434 
       60600.00          0.0540          0.4424 
       60650.00          0.0529          0.4436 
       60700.00          0.1047          0.4491 
       60750.00          0.0356          0.4456 
       60800.00          0.0867          0.4319 
       60850.00          0.0895          0.4439 
       60900.00          0.1212          0.4262 
       60950.00          0.0495          0.4578 
       61000.00          0.0367          0.4425 
       61050.00          0.0735          0.4481 
       61100.00          0.0684          0.4377 
       61150.00          0.0622          0.4428 
       61200.00          0.0936          0.4447 
       61250.00          0.0601          0.4407 
       61300.00          0.0871          0.4474 
       61350.00          0.0784          0.4501 
       61400.00          0.0383          0.4423 
       61450.00          0.0606          0.4374 
       61500.00          0.0798          0.4346 
       61550.00          0.0566          0.4545 
       61600.00          0.0692          0.4454 
       61650.00          0.0368          0.4566 
       61700.00          0.0544          0.4395 
       61750.00          0.0427          0.4432 
       61800.00          0.0456          0.4508 
       61850.00          0.0560          0.4527 
       61900.00          0.0755          0.4531 
       61950.00          0.1021          0.4303 
       62000.00          0.0427          0.4499 
       62050.00          0.0535          0.4462 
       62100.00          0.0804          0.4425 
       62150.00          0.1368          0.4252 
       62200.00          0.1023          0.4384 
       62250.00          0.0955          0.4349 
       62300.00          0.0631          0.4433 
       62350.00          0.0716          0.4287 
       62400.00          0.0830          0.4387 
       62450.00          0.0632          0.4459 
       62500.00          0.0805          0.4376 
       62550.00          0.1008          0.4388 
       62600.00          0.0619          0.4434 
       62650.00          0.0533          0.4487 
       62700.00          0.0713          0.4542 
       62750.00          0.0849          0.4468 
       62800.00          0.1513          0.4366 
       62850.00          0.1543          0.4323 
       62900.00          0.1542          0.4435 
       62950.00          0.1627          0.4210 
       63000.00          0.1269          0.4497 
       63050.00          0.1259          0.4615 
       63100.00          0.0956          0.4613 
       63150.00          0.1706          0.4135 
       63200.00          0.1641          0.4245 
       63250.00          0.1825          0.4055 
       63300.00          0.1138          0.4553 
       63350.00          0.1721          0.4040 
       63400.00          0.1213          0.4648 
       63450.00          0.0554          0.4442 
       63500.00          0.0542          0.4391 
       63550.00          0.0953          0.4392 
       63600.00          0.0729          0.4441 
       63650.00          0.0802          0.4438 
       63700.00          0.0737          0.4482 
       63750.00          0.0663          0.4418 
       63800.00          0.0632          0.4435 
       63850.00          0.0436          0.4454 
       63900.00          0.0644          0.4439 
       63950.00          0.0615          0.4499 
       64000.00          0.0377          0.4475 
       64050.00          0.0600          0.4359 
       64100.00          0.0666          0.4493 
       64150.00          0.0777          0.4375 
       64200.00          0.0868          0.4501 
       64250.00          0.0780          0.4351 
       64300.00          0.1474          0.4124 
       64350.00          0.1053          0.4329 
       64400.00          0.1437          0.4282 
       64450.00          0.0684          0.4463 
       64500.00          0.0828          0.4369 
       64550.00          0.0601          0.4423 
       64600.00          0.0518          0.4449 
       64650.00          0.0608          0.4408 
       64700.00          0.1129          0.4310 
       64750.00          0.0847          0.4395 
       64800.00          0.1123          0.4488 
       64850.00          0.1396          0.4277 
       64900.00          0.0856          0.4388 
       64950.00          0.0766          0.4435 
       65000.00          0.0925          0.4532 
       65050.00          0.0898          0.4380 
       65100.00          0.0686          0.4344 
       65150.00          0.0976          0.4391 
       65200.00          0.0653          0.4386 
       65250.00          0.0750          0.4345 
       65300.00          0.0512          0.4432 
       65350.00          0.0572          0.4504 
       65400.00          0.0625          0.4430 
       65450.00          0.0687          0.4431 
       65500.00          0.0427          0.4427 
       65550.00          0.1377          0.4213 
       65600.00          0.1062          0.4313 
       65650.00          0.0708          0.4430 
       65700.00          0.0540          0.4430 
       65750.00          0.1187          0.4266 
       65800.00          0.0650          0.4348 
       65850.00          0.0676          0.4517 
       65900.00          0.0655          0.4494 
       65950.00          0.0593          0.4483 
       66000.00          0.0790          0.4454 
       66050.00          0.0733          0.4539 
       66100.00          0.0658          0.4435 
       66150.00          0.0647          0.4444 
       66200.00          0.0529          0.4618 
       66250.00          0.0421          0.4521 
       66300.00          0.0618          0.4558 
       66350.00          0.0423          0.4484 
       66400.00          0.0314          0.4415 
       66450.00          0.0874          0.4399 
       66500.00          0.0724          0.4359 
       66550.00          0.0523          0.4500 
       66600.00          0.0693          0.4503 
       66650.00          0.1180          0.4165 
       66700.00          0.0898          0.4491 
       66750.00          0.0572          0.4514 
       66800.00          0.0616          0.4404 
       66850.00          0.0542          0.4480 
       66900.00          0.1061          0.4452 
       66950.00          0.0893          0.4317 
       67000.00          0.0663          0.4368 
       67050.00          0.1105          0.4467 
       67100.00          0.0706          0.4452 
       67150.00          0.0574          0.4429 
       67200.00          0.0666          0.4463 
       67250.00          0.0438          0.4404 
       67300.00          0.0524          0.4476 
       67350.00          0.1013          0.4432 
       67400.00          0.0454          0.4420 
       67450.00          0.0594          0.4361 
       67500.00          0.0819          0.4328 
       67550.00          0.1225          0.4254 
       67600.00          0.1152          0.4405 
       67650.00          0.0790          0.4551 
       67700.00          0.0766          0.4494 
       67750.00          0.0308          0.4402 
       67800.00          0.0516          0.4381 
       67850.00          0.0318          0.4408 
       67900.00          0.0615          0.4455 
       67950.00          0.0667          0.4371 
       68000.00          0.0812          0.4436 
       68050.00          0.1377          0.4170 
       68100.00          0.0715          0.4396 
       68150.00          0.0573          0.4342 
       68200.00          0.0693          0.4454 
       68250.00          0.0701          0.4383 
       68300.00          0.0578          0.4515 
       68350.00          0.0538          0.4571 
       68400.00          0.0606          0.4355 
       68450.00          0.0714          0.4377 
       68500.00          0.0479          0.4435 
       68550.00          0.0743          0.4350 
       68600.00          0.0633          0.4369 
       68650.00          0.0380          0.4381 
       68700.00          0.0594          0.4518 
       68750.00          0.1398          0.4173 
       68800.00          0.0728          0.4346 
       68850.00          0.1090          0.4339 
       68900.00          0.0607          0.4410 
       68950.00          0.0879          0.4503 
       69000.00          0.0800          0.4430 
       69050.00          0.0557          0.4339 
       69100.00          0.0670          0.4286 
       69150.00          0.0667          0.4374 
       69200.00          0.0754          0.4285 
       69250.00          0.0805          0.4352 
       69300.00          0.0831          0.4466 
       69350.00          0.0504          0.4373 
       69400.00          0.0454          0.4481 
       69450.00          0.0494          0.4440 
       69500.00          0.0945          0.4344 
       69550.00          0.0528          0.4546 
       69600.00          0.0557          0.4501 
       69650.00          0.0278          0.4434 
       69700.00          0.0609          0.4430 
       69750.00          0.0384          0.4600 
       69800.00          0.0599          0.4478 
       69850.00          0.0844          0.4490 
       69900.00          0.0838          0.4404 
       69950.00          0.0557          0.4386 
       70000.00          0.1173          0.4361 
       70050.00          0.0765          0.4330 
       70100.00          0.0627          0.4533 
       70150.00          0.0737          0.4396 
       70200.00          0.0482          0.4440 
       70250.00          0.0762          0.4531 
       70300.00          0.0536          0.4466 
       70350.00          0.0998          0.4699 
       70400.00          0.1953          0.4204 
       70450.00          0.2026          0.4094 
       70500.00          0.1950          0.4128 
       70550.00          0.1760          0.4210 
       70600.00          0.1845          0.4153 
       70650.00          0.1766          0.4213 
       70700.00          0.1886          0.4268 
       70750.00          0.2157          0.4117 
       70800.00          0.1828          0.4287 
       70850.00          0.1806          0.4345 
       70900.00          0.1843          0.4338 
       70950.00          0.2230          0.3855 
       71000.00          0.2703          0.3807 
       71050.00          0.2192          0.3898 
       71100.00          0.1561          0.4464 
       71150.00          0.1812          0.4388 
       71200.00          0.1621          0.4421 
       71250.00          0.1943          0.4211 
       71300.00          0.1858          0.4309 
       71350.00          0.1912          0.4338 
       71400.00          0.1495          0.4439 
       71450.00          0.2248          0.4232 
       71500.00          0.1732          0.4286 
       71550.00          0.1779          0.4242 
       71600.00          0.1626          0.4432 
       71650.00          0.2032          0.4200 
       71700.00          0.1802          0.4254 
       71750.00          0.1939          0.4192 
       71800.00          0.1881          0.4193 
       71850.00          0.1955          0.4096 
       71900.00          0.2105          0.4201 
       71950.00          0.2279          0.3939 
       72000.00          0.2082          0.4059 
       72050.00          0.2118          0.4199 
       72100.00          0.1792          0.4336 
       72150.00          0.1686          0.4521 
       72200.00          0.1967          0.4110 
       72250.00          0.1848          0.4349 
       72300.00          0.2174          0.3975 
       72350.00          0.1773          0.4316 
       72400.00          0.1110          0.4632 
       72450.00          0.1924          0.4159 
       72500.00          0.2175          0.4043 
       72550.00          0.2187          0.4112 
       72600.00          0.1673          0.4327 
       72650.00          0.2133          0.4054 
       72700.00          0.2321          0.4083 
       72750.00          0.1860          0.4198 
       72800.00          0.2186          0.4017 
       72850.00          0.1815          0.4300 
       72900.00          0.1870          0.4218 
       72950.00          0.1639          0.4374 
       73000.00          0.1459          0.4452 
       73050.00          0.1680          0.4255 
       73100.00          0.1796          0.4254 
       73150.00          0.1972          0.4262 
       73200.00          0.1949          0.4228 
       73250.00          0.1333          0.4502 
       73300.00          0.1933          0.4263 
       73350.00          0.1898          0.4195 
       73400.00          0.1827          0.4309 
       73450.00          0.1820          0.4262 
       73500.00          0.1804          0.4244 
       73550.00          0.1677          0.4401 
       73600.00          0.1972          0.4202 
       73650.00          0.1690          0.4296 
       73700.00          0.1866          0.4278 
       73750.00          0.1397          0.4432 
       73800.00          0.1742          0.4367 
       73850.00          0.1677          0.4335 
       73900.00          0.1635          0.4375 
       73950.00          0.1157          0.4536 
       74000.00          0.0828          0.4421 
       74050.00          0.0462          0.4560 
       74100.00          0.0938          0.4434 
       74150.00          0.1750          0.4337 
       74200.00          0.2043          0.4203 
       74250.00          0.2134          0.4164 
       74300.00          0.2090          0.4069 
       74350.00          0.2250          0.4082 
       74400.00          0.1990          0.4277 
       74450.00          0.2174          0.4116 
       74500.00          0.1921          0.4126 
       74550.00          0.2365          0.3949 
       74600.00          0.2036          0.4012 
       74650.00          0.1511          0.4489 
       74700.00          0.1027          0.4379 
       74750.00          0.1081          0.4408 
       74800.00          0.0823          0.4438 
       74850.00          0.0464          0.4524 
       74900.00          0.1261          0.4193 
       74950.00          0.1363          0.4227 
       75000.00          0.1015          0.4212 
       75050.00          0.0962          0.4551 
       75100.00          0.0900          0.4379 
       75150.00          0.0824          0.4538 
       75200.00          0.0800          0.4458 
       75250.00          0.0607          0.4537 
       75300.00          0.0886          0.4526 
       75350.00          0.1188          0.4573 
       75400.00          0.2256          0.4147 
       75450.00          0.1738          0.4291 
       75500.00          0.1943          0.4204 
       75550.00          0.1804          0.4217 
       75600.00          0.1865          0.4229 
       75650.00          0.2150          0.3975 
       75700.00          0.1716          0.4284 
       75750.00          0.2198          0.3937 
       75800.00          0.1855          0.4249 
       75850.00          0.1643          0.4332 
       75900.00          0.1755          0.4286 
       75950.00          0.1699          0.4252 
       76000.00          0.1830          0.4243 
       76050.00          0.0633          0.4524 
       76100.00          0.0790          0.4444 
       76150.00          0.0585          0.4477 
       76200.00          0.0729          0.4407 
       76250.00          0.0827          0.4433 
       76300.00          0.0710          0.4558 
       76350.00          0.0597          0.4425 
       76400.00          0.0738          0.4355 
       76450.00          0.0655          0.4524 
       76500.00          0.0499          0.4486 
       76550.00          0.0764          0.4365 
       76600.00          0.0799          0.4418 
       76650.00          0.0783          0.4417 
       76700.00          0.0620          0.4384 
       76750.00          0.0614          0.4518 
       76800.00          0.0715          0.4386 
       76850.00          0.0657          0.4315 
       76900.00          0.0706          0.4379 
       76950.00          0.0716          0.4405 
       77000.00          0.1073          0.4300 
       77050.00          0.0787          0.4359 
       77100.00          0.0534          0.4477 
       77150.00          0.0411          0.4495 
       77200.00          0.0711          0.4567 
       77250.00          0.0472          0.4589 
       77300.00          0.0644          0.4354 
       77350.00          0.0613          0.4450 
       77400.00          0.0706          0.4460 
       77450.00          0.0535          0.4440 
       77500.00          0.0613          0.4383 
       77550.00          0.0508          0.4502 
       77600.00          0.0902          0.4319 
       77650.00          0.0732          0.4358 
       77700.00          0.0615          0.4503 
       77750.00          0.0749          0.4475 
       77800.00          0.0552          0.4405 
       77850.00          0.0793          0.4345 
       77900.00          0.0681          0.4447 
       77950.00          0.0886          0.4387 
       78000.00          0.0518          0.4370 
       78050.00          0.0476          0.4542 
       78100.00          0.0376          0.4499 
       78150.00          0.0665          0.4284 
       78200.00          0.1041          0.4318 
       78250.00          0.1087          0.4393 
       78300.00          0.0694          0.4485 
       78350.00          0.0612          0.4504 
       78400.00          0.0678          0.4478 
       78450.00          0.0631          0.4397 
       78500.00          0.0540          0.4355 
       78550.00          0.0658          0.4366 
       78600.00          0.0343          0.4487 
       78650.00          0.0320          0.4399 
       78700.00          0.0426          0.4517 
       78750.00          0.1105          0.4375 
       78800.00          0.1230          0.4213 
       78850.00          0.0818          0.4490 
       78900.00          0.0823          0.4476 
       78950.00          0.0501          0.4446 
       79000.00          0.0834          0.4401 
       79050.00          0.0610          0.4315 
       79100.00          0.0760          0.4490 
       79150.00          0.0701          0.4422 
       79200.00          0.0575          0.4505 
       79250.00          0.1066          0.4382 
       79300.00          0.1084          0.4313 
       79350.00          0.1244          0.4189 
       79400.00          0.1058          0.4340 
       79450.00          0.0664          0.4506 
       79500.00          0.0659          0.4346 
       79550.00          0.1245          0.4254 
       79600.00          0.0590          0.4646 
       79650.00          0.0761          0.4453 
       79700.00          0.0300          0.4456 
       79750.00          0.0547          0.4414 
       79800.00          0.0981          0.4246 
       79850.00          0.0722          0.4514 
       79900.00          0.0683          0.4470 
       79950.00          0.0679          0.4476 
       80000.00          0.1072          0.4415 
       80050.00          0.1083          0.4261 
       80100.00          0.0774          0.4346 
       80150.00          0.0531          0.4478 
       80200.00          0.0454          0.4643 
       80250.00          0.0892          0.4480 
       80300.00          0.0684          0.4379 
       80350.00          0.0609          0.4463 
       80400.00          0.0968          0.4412 
       80450.00          0.1299          0.4319 
       80500.00          0.1117          0.4251 
       80550.00          0.0566          0.4494 
       80600.00          0.0688          0.4333 
       80650.00          0.0501          0.4516 
       80700.00          0.0680          0.4383 
       80750.00          0.0503          0.4459 
       80800.00          0.0588          0.4375 
       80850.00          0.0839          0.4367 
       80900.00          0.0625          0.4377 
       80950.00          0.0744          0.4443 
       81000.00          0.0712          0.4530 
       81050.00          0.0982          0.4329 
       81100.00          0.1032          0.4395 
       81150.00          0.0410          0.4497 
       81200.00          0.0594          0.4505 
       81250.00          0.0621          0.4464 
       81300.00          0.0945          0.4392 
       81350.00          0.0680          0.4432 
       81400.00          0.0738          0.4659 
       81450.00          0.0523          0.4507 
       81500.00          0.0632          0.4491 
       81550.00          0.0586          0.4423 
       81600.00          0.0757          0.4356 
       81650.00          0.0811          0.4416 
       81700.00          0.0335          0.4380 
       81750.00          0.0594          0.4466 
       81800.00          0.1218          0.4358 
       81850.00          0.0585          0.4458 
       81900.00          0.0498          0.4437 
       81950.00          0.0572          0.4517 
       82000.00          0.0660          0.4376 
       82050.00          0.0715          0.4454 
       82100.00          0.0600          0.4464 
       82150.00          0.0608          0.4286 
       82200.00          0.0706          0.4282 
       82250.00          0.0697          0.4390 
       82300.00          0.0568          0.4434 
       82350.00          0.0694          0.4381 
       82400.00          0.0597          0.4388 
       82450.00          0.0746          0.4364 
       82500.00          0.0475          0.4493 
       82550.00          0.1014          0.4377 
       82600.00          0.0853          0.4398 
       82650.00          0.0521          0.4471 
       82700.00          0.0980          0.4414 
       82750.00          0.0958          0.4389 
       82800.00          0.0871          0.4436 
       82850.00          0.0510          0.4415 
       82900.00          0.0682          0.4356 
       82950.00          0.0619          0.4505 
       83000.00          0.0660          0.4430 
       83050.00          0.0597          0.4466 
       83100.00          0.0557          0.4457 
       83150.00          0.0590          0.4334 
       83200.00          0.0880          0.4279 
       83250.00          0.0604          0.4435 
       83300.00          0.0562          0.4538 
       83350.00          0.0474          0.4437 
       83400.00          0.0677          0.4488 
       83450.00          0.0629          0.4526 
       83500.00          0.0622          0.4512 
       83550.00          0.0701          0.4362 
       83600.00          0.0875          0.4335 
       83650.00          0.0662          0.4371 
       83700.00          0.0778          0.4456 
       83750.00          0.0858          0.4339 
       83800.00          0.0841          0.4419 
       83850.00          0.0923          0.4395 
       83900.00          0.0592          0.4408 
       83950.00          0.1351          0.4168 
       84000.00          0.1120          0.4251 
       84050.00          0.1055          0.4357 
       84100.00          0.0622          0.4455 
       84150.00          0.0517          0.4531 
       84200.00          0.0794          0.4286 
       84250.00          0.0350          0.4546 
       84300.00          0.0629          0.4500 
       84350.00          0.0720          0.4488 
       84400.00          0.0740          0.4474 
       84450.00          0.0967          0.4263 
       84500.00          0.0747          0.4393 
       84550.00          0.0294          0.4499 
       84600.00          0.0322          0.4466 
       84650.00          0.0848          0.4372 
       84700.00          0.0565          0.4356 
       84750.00          0.1360          0.4173 
       84800.00          0.1069          0.4307 
       84850.00          0.0739          0.4312 
       84900.00          0.0949          0.4369 
       84950.00          0.0742          0.4518 
       85000.00          0.1022          0.4451 
       85050.00          0.1510          0.4481 
       85100.00          0.1753          0.4360 
       85150.00          0.1900          0.4156 
       85200.00          0.2276          0.3757 
       85250.00          0.1338          0.4177 
       85300.00          0.1278          0.4345 
       85350.00          0.0817          0.4439 
       85400.00          0.0563          0.4472 
       85450.00          0.0669          0.4514 
       85500.00          0.0753          0.4509 
       85550.00          0.0676          0.4489 
       85600.00          0.0533          0.4556 
       85650.00          0.0515          0.4397 
       85700.00          0.0384          0.4588 
       85750.00          0.0431          0.4528 
       85800.00          0.0822          0.4384 
       85850.00          0.0741          0.4410 
       85900.00          0.0415          0.4483 
       85950.00          0.0617          0.4359 
       86000.00          0.0517          0.4425 
       86050.00          0.0527          0.4351 
       86100.00          0.1008          0.4336 
       86150.00          0.0528          0.4516 
       86200.00          0.0660          0.4444 
       86250.00          0.0746          0.4399 
       86300.00          0.0747          0.4441 
       86350.00          0.0532          0.4496 
       86400.00          0.0838          0.4434 
       86450.00          0.0602          0.4456 
       86500.00          0.0710          0.4389 
       86550.00          0.0294          0.4493 
       86600.00          0.0765          0.4377 
       86650.00          0.0778          0.4447 
       86700.00          0.0774          0.4439 
       86750.00          0.0572          0.4526 
       86800.00          0.0814          0.4402 
       86850.00          0.0538          0.4385 
       86900.00          0.0835          0.4567 
       86950.00          0.0644          0.4439 
       87000.00          0.0772          0.4485 
       87050.00          0.0640          0.4347 
       87100.00          0.0610          0.4440 
       87150.00          0.0722          0.4492 
       87200.00          0.0765          0.4326 
       87250.00          0.1001          0.4460 
       87300.00          0.0817          0.4478 
       87350.00          0.0958          0.4332 
       87400.00          0.0840          0.4350 
       87450.00          0.0858          0.4511 
       87500.00          0.0739          0.4430 
       87550.00          0.1034          0.4395 
       87600.00          0.0628          0.4386 
       87650.00          0.0811          0.4535 
       87700.00          0.0679          0.4421 
       87750.00          0.0900          0.4454 
       87800.00          0.0893          0.4409 
       87850.00          0.0499          0.4521 
       87900.00          0.0506          0.4486 
       87950.00          0.0612          0.4389 
       88000.00          0.0724          0.4399 
       88050.00          0.0405          0.4628 
       88100.00          0.0846          0.4435 
       88150.00          0.0907          0.4420 
       88200.00          0.0997          0.4326 
       88250.00          0.0584          0.4448 
       88300.00          0.0643          0.4476 
       88350.00          0.0470          0.4461 
       88400.00          0.0571          0.4487 
       88450.00          0.0772          0.4346 
       88500.00          0.0699          0.4508 
       88550.00          0.0714          0.4287 
       88600.00          0.0671          0.4382 
       88650.00          0.0646          0.4391 
       88700.00          0.0948          0.4405 
       88750.00          0.1016          0.4433 
       88800.00          0.1061          0.4271 
       88850.00          0.1081          0.4393 
       88900.00          0.0836          0.4421 
       88950.00          0.0908          0.4279 
       89000.00          0.0974          0.4425 
       89050.00          0.1090          0.4377 
       89100.00          0.1191          0.4283 
       89150.00          0.1170          0.4432 
       89200.00          0.0941          0.4446 
       89250.00          0.1322          0.4255 
       89300.00          0.0855          0.4456 
       89350.00          0.0706          0.4319 
       89400.00          0.0798          0.4437 
       89450.00          0.0540          0.4472 
       89500.00          0.0723          0.4429 
       89550.00          0.0475          0.4424 
       89600.00          0.0652          0.4344 
       89650.00          0.1180          0.4410 
       89700.00          0.0452          0.4441 
       89750.00          0.0548          0.4399 
       89800.00          0.0621          0.4401 
       89850.00          0.1010          0.4310 
       89900.00          0.0838          0.4315 
       89950.00          0.0570          0.4531 
       90000.00          0.0760          0.4523 
       90050.00          0.0614          0.4481 
       90100.00          0.0552          0.4381 
       90150.00          0.0692          0.4302 
       90200.00          0.0800          0.4354 
       90250.00          0.0889          0.4421 
       90300.00          0.0544          0.4379 
       90350.00          0.0690          0.4559 
       90400.00          0.0683          0.4408 
       90450.00          0.0274          0.4578 
       90500.00          0.0732          0.4422 
       90550.00          0.1018          0.4325 
       90600.00          0.0778          0.4444 
       90650.00          0.0807          0.4350 
       90700.00          0.0383          0.4547 
       90750.00          0.0615          0.4548 
       90800.00          0.0735          0.4369 
       90850.00          0.0781          0.4368 
       90900.00          0.0617          0.4410 
       90950.00          0.0831          0.4443 
       91000.00          0.0766          0.4409 
       91050.00          0.0899          0.4406 
       91100.00          0.0608          0.4464 
       91150.00          0.0881          0.4331 
       91200.00          0.0807          0.4384 
       91250.00          0.0942          0.4380 
       91300.00          0.0570          0.4432 
       91350.00          0.1054          0.4354 
       91400.00          0.0605          0.4401 
       91450.00          0.0359          0.4414 
       91500.00          0.0609          0.4571 
       91550.00          0.0921          0.4364 
       91600.00          0.0486          0.4463 
       91650.00          0.0897          0.4403 
       91700.00          0.0937          0.4223 
       91750.00          0.1171          0.4337 
       91800.00          0.0749          0.4514 
       91850.00          0.0520          0.4388 
       91900.00          0.0552          0.4498 
       91950.00          0.0685          0.4488 
       92000.00          0.0557          0.4400 
       92050.00          0.0596          0.4398 
       92100.00          0.0620          0.4409 
       92150.00          0.0774          0.4407 
       92200.00          0.0700          0.4518 
       92250.00          0.0448          0.4437 
       92300.00          0.0620          0.4515 
       92350.00          0.0652          0.4391 
       92400.00          0.0429          0.4499 
       92450.00          0.0726          0.4329 
       92500.00          0.0717          0.4463 
       92550.00          0.0698          0.4528 
       92600.00          0.0740          0.4409 
       92650.00          0.1059          0.4292 
       92700.00          0.1149          0.4308 
       92750.00          0.0673          0.4491 
       92800.00          0.0544          0.4523 
       92850.00          0.0805          0.4427 
       92900.00          0.0780          0.4645 
       92950.00          0.0517          0.4561 
       93000.00          0.0932          0.4393 
       93050.00          0.0447          0.4471 
       93100.00          0.0302          0.4549 
       93150.00          0.1450          0.4123 
       93200.00          0.1134          0.4338 
       93250.00          0.0324          0.4514 
       93300.00          0.0562          0.4418 
       93350.00          0.0569          0.4393 
       93400.00          0.0666          0.4432 
       93450.00          0.0396          0.4448 
       93500.00          0.0415          0.4498 
       93550.00          0.1454          0.4199 
       93600.00          0.0647          0.4477 
       93650.00          0.0705          0.4365 
       93700.00          0.0788          0.4443 
       93750.00          0.0319          0.4455 
       93800.00          0.0597          0.4591 
       93850.00          0.0810          0.4466 
       93900.00          0.1194          0.4436 
       93950.00          0.0862          0.4349 
       94000.00          0.0657          0.4276 
       94050.00          0.0629          0.4447 
       94100.00          0.0547          0.4546 
       94150.00          0.0559          0.4449 
       94200.00          0.0939          0.4400 
       94250.00          0.0594          0.4435 
       94300.00          0.0734          0.4395 
       94350.00          0.0818          0.4380 
       94400.00          0.0627          0.4448 
       94450.00          0.0738          0.4337 
       94500.00          0.0684          0.4426 
       94550.00          0.0791          0.4475 
       94600.00          0.0790          0.4415 
       94650.00          0.0516          0.4456 
       94700.00          0.0656          0.4492 
       94750.00          0.0514          0.4417 
       94800.00          0.0707          0.4338 
       94850.00          0.0681          0.4450 
       94900.00          0.0553          0.4477 
       94950.00          0.0496          0.4499 
       95000.00          0.0381          0.4547 
       95050.00          0.0534          0.4532 
       95100.00          0.1172          0.4389 
       95150.00          0.0730          0.4289 
       95200.00          0.0624          0.4450 
       95250.00          0.0549          0.4452 
       95300.00          0.0662          0.4456 
       95350.00          0.0873          0.4470 
       95400.00          0.0942          0.4293 
       95450.00          0.1147          0.4249 
       95500.00          0.0535          0.4527 
       95550.00          0.0668          0.4265 
       95600.00          0.0660          0.4436 
       95650.00          0.0693          0.4505 
       95700.00          0.0862          0.4339 
       95750.00          0.0312          0.4483 
       95800.00          0.1013          0.4332 
       95850.00          0.1528          0.4087 
       95900.00          0.1099          0.4419 
       95950.00          0.0767          0.4319 
       96000.00          0.1013          0.4297 
       96050.00          0.0709          0.4417 
       96100.00          0.0517          0.4349 
       96150.00          0.0736          0.4280 
       96200.00          0.0840          0.4385 
       96250.00          0.0555          0.4466 
       96300.00          0.0840          0.4519 
       96350.00          0.0580          0.4455 
       96400.00          0.0401          0.4369 
       96450.00          0.0571          0.4382 
       96500.00          0.0681          0.4418 
       96550.00          0.0972          0.4386 
       96600.00          0.0508          0.4440 
       96650.00          0.0312          0.4479 
       96700.00          0.0692          0.4390 
       96750.00          0.0346          0.4449 
       96800.00          0.0428          0.4401 
       96850.00          0.0453          0.4504 
       96900.00          0.0584          0.4531 
       96950.00          0.0723          0.4375 
       97000.00          0.0950          0.4322 
       97050.00          0.0509          0.4477 
       97100.00          0.0762          0.4435 
       97150.00          0.0481          0.4470 
       97200.00          0.0687          0.4430 
       97250.00          0.0750          0.4402 
       97300.00          0.0668          0.4403 
       97350.00          0.0626          0.4406 
       97400.00          0.0636          0.4478 
       97450.00          0.0626          0.4514 
       97500.00          0.0734          0.4492 
       97550.00          0.0673          0.4456 
       97600.00          0.0631          0.4497 
       97650.00          0.0719          0.4453 
       97700.00          0.0801          0.4462 
       97750.00          0.0604          0.4435 
       97800.00          0.0784          0.4354 
       97850.00          0.0520          0.4415 
       97900.00          0.0650          0.4452 
       97950.00          0.0677          0.4604 
       98000.00          0.0669          0.4468 
       98050.00          0.0714          0.4338 
       98100.00          0.0797          0.4495 
       98150.00          0.0896          0.4339 
       98200.00          0.0512          0.4513 
       98250.00          0.1008          0.4336 
       98300.00          0.0713          0.4415 
       98350.00          0.0350          0.4551 
       98400.00          0.0978          0.4465 
       98450.00          0.0482          0.4413 
       98500.00          0.0715          0.4552 
       98550.00          0.0804          0.4414 
       98600.00          0.0444          0.4526 
       98650.00          0.0597          0.4421 
       98700.00          0.0703          0.4465 
       98750.00          0.0336          0.4473 
       98800.00          0.0552          0.4389 
       98850.00          0.0536          0.4476 
       98900.00          0.0712          0.4399 
       98950.00          0.0633          0.4423 
       99000.00          0.0646          0.4529 
       99050.00          0.0902          0.4445 
       99100.00          0.1074          0.4355 
       99150.00          0.0530          0.4481 
       99200.00          0.0991          0.4453 
       99250.00          0.0664          0.4462 
       99300.00          0.0927          0.4655 
       99350.00          0.1591          0.4230 
       99400.00          0.1716          0.4453 
       99450.00          0.1242          0.4550 
       99500.00          0.1392          0.4410 
       99550.00          0.1601          0.4221 
       99600.00          0.1468          0.4187 
       99650.00          0.1853          0.3997 
       99700.00          0.1832          0.4197 
       99750.00          0.1032          0.4455 
       99800.00          0.0895          0.4372 
       99850.00          0.0471          0.4400 
       99900.00          0.0748          0.4394 
       99950.00          0.0401          0.4404 
      100000.00          0.0892          0.4431 
