@    xaxis  label "t"
@    yaxis  label "RMSD (nm)"
           0.00          0.0000          0.4517 
          50.00          0.0979          0.4421 
         100.00          0.1868          0.4245 
         150.00          0.2259          0.3772 
         200.00          0.1319          0.4279 
         250.00          0.1740          0.4372 
         300.00          0.2191          0.4137 
         350.00          0.2382          0.4123 
         400.00          0.2135          0.4143 
         450.00          0.1730          0.4439 
         500.00          0.1964          0.4073 
         550.00          0.1824          0.4137 
         600.00          0.1968          0.4041 
         650.00          0.1820          0.4260 
         700.00          0.1857          0.4295 
         750.00          0.2026          0.4093 
         800.00          0.1591          0.4317 
         850.00          0.1580          0.4415 
         900.00          0.1633          0.4429 
         950.00          0.1844          0.4222 
        1000.00          0.1637          0.4338 
        1050.00          0.1959          0.4209 
        1100.00          0.1878          0.4225 
        1150.00          0.2293          0.3893 
        1200.00          0.1957          0.4247 
        1250.00          0.1964          0.4178 
        1300.00          0.1761          0.4377 
        1350.00          0.1499          0.4478 
        1400.00          0.1723          0.4285 
        1450.00          0.1690          0.4290 
        1500.00          0.1541          0.4362 
        1550.00          0.1311          0.4487 
        1600.00          0.0887          0.4620 
        1650.00          0.1676          0.4347 
        1700.00          0.1331          0.4499 
        1750.00          0.1427          0.4471 
        1800.00          0.1167          0.4639 
        1850.00          0.1067          0.4609 
        1900.00          0.1474          0.4406 
        1950.00          0.1400          0.4459 
        2000.00          0.1234          0.4632 
        2050.00          0.1998          0.4068 
        2100.00          0.2097          0.4139 
        2150.00          0.1479          0.4314 
        2200.00          0.1663          0.4398 
        2250.00          0.1076          0.4569 
        2300.00          0.0507          0.4551 
        2350.00          0.0985          0.4605 
        2400.00          0.0729          0.4628 
        2450.00          0.0623          0.4507 
        2500.00          0.0856          0.4499 
        2550.00          0.0564          0.4492 
        2600.00          0.0618          0.4403 
        2650.00          0.1063          0.4370 
        2700.00          0.0596          0.4459 
        2750.00          0.0662          0.4437 
        2800.00          0.0561          0.4436 
        2850.00          0.0557          0.4417 
        2900.00          0.0446          0.4558 
        2950.00          0.0501          0.4470 
        3000.00          0.0680          0.4394 
        3050.00          0.0489          0.4331 
        3100.00          0.0692          0.4554 
        3150.00          0.0453          0.4476 
        3200.00          0.0558          0.4533 
        3250.00          0.0628          0.4455 
        3300.00          0.0716          0.4463 
        3350.00          0.0858          0.4385 
        3400.00          0.0713          0.4484 
        3450.00          0.0616          0.4281 
        3500.00          0.0552          0.4499 
        3550.00          0.1106          0.4362 
        3600.00          0.0715          0.4389 
        3650.00          0.0677          0.4383 
        3700.00          0.0563          0.4455 
        3750.00          0.0994          0.4278 
        3800.00          0.1214          0.4357 
        3850.00          0.1171          0.4226 
        3900.00          0.0524          0.4347 
        3950.00          0.0463          0.4473 
        4000.00          0.0623          0.4491 
        4050.00          0.1045          0.4354 
        4100.00          0.1050          0.4415 
        4150.00          0.0706          0.4561 
        4200.00          0.0351          0.4397 
        4250.00          0.0450          0.4504 
        4300.00          0.1272          0.4309 
        4350.00          0.1516          0.4098 
        4400.00          0.1255          0.4245 
        4450.00          0.0872          0.4370 
        4500.00          0.0429          0.4514 
        4550.00          0.0310          0.4465 
        4600.00          0.0480          0.4465 
        4650.00          0.0462          0.4427 
        4700.00          0.0601          0.4394 
        4750.00          0.0510          0.4430 
        4800.00          0.0982          0.4234 
        4850.00          0.0740          0.4462 
        4900.00          0.0754          0.4446 
        4950.00          0.0824          0.4485 
        5000.00          0.0673          0.4481 
        5050.00          0.0632          0.4508 
        5100.00          0.0646          0.4406 
        5150.00          0.0941          0.4390 
        5200.00          0.0541          0.4484 
        5250.00          0.0563          0.4431 
        5300.00          0.1261          0.4280 
        5350.00          0.0826          0.4437 
        5400.00          0.1198          0.4267 
        5450.00          0.1015          0.4372 
        5500.00          0.0725          0.4418 
        5550.00          0.1061          0.4410 
        5600.00          0.0633          0.4460 
        5650.00          0.0822          0.4371 
        5700.00          0.0601          0.4325 
        5750.00          0.0546          0.4345 
        5800.00          0.0703          0.4606 
        5850.00          0.1155          0.4592 
        5900.00          0.1467          0.4403 
        5950.00          0.2417          0.3964 
        6000.00          0.2014          0.4128 
        6050.00          0.2763          0.3853 
        6100.00          0.2239          0.4291 
        6150.00          0.1829          0.4487 
        6200.00          0.2424          0.4087 
        6250.00          0.2251          0.4433 
        6300.00          0.1968          0.4493 
        6350.00          0.1942          0.4708 
        6400.00          0.2259          0.4360 
        6450.00          0.2407          0.3964 
        6500.00          0.2710          0.3870 
        6550.00          0.2509          0.4032 
        6600.00          0.2783          0.3770 
        6650.00          0.2452          0.3955 
        6700.00          0.2190          0.4119 
        6750.00          0.1767          0.4291 
        6800.00          0.2508          0.4116 
        6850.00          0.2311          0.4424 
        6900.00          0.1640          0.4674 
        6950.00          0.1303          0.4807 
        7000.00          0.2008          0.4296 
        7050.00          0.2355          0.3943 
        7100.00          0.2318          0.4002 
        7150.00          0.2396          0.3993 
        7200.00          0.2185          0.4189 
        7250.00          0.2174          0.4280 
        7300.00          0.1800          0.4265 
        7350.00          0.1696          0.4353 
        7400.00          0.2482          0.3956 
        7450.00          0.2612          0.3738 
        7500.00          0.2689          0.3608 
        7550.00          0.2421          0.4095 
        7600.00          0.3111          0.3676 
        7650.00          0.2395          0.4096 
        7700.00          0.2054          0.4253 
        7750.00          0.2093          0.4211 
        7800.00          0.2678          0.4172 
        7850.00          0.2085          0.4162 
        7900.00          0.1983          0.4234 
        7950.00          0.2045          0.4193 
        8000.00          0.1977          0.4180 
        8050.00          0.1820          0.4270 
        8100.00          0.1706          0.4313 
        8150.00          0.2037          0.4192 
        8200.00          0.1789          0.4266 
        8250.00          0.1965          0.4260 
        8300.00          0.1942          0.4252 
        8350.00          0.2044          0.4141 
        8400.00          0.2559          0.3760 
        8450.00          0.1958          0.4196 
        8500.00          0.1985          0.4062 
        8550.00          0.1846          0.4228 
        8600.00          0.1981          0.4118 
        8650.00          0.1492          0.4495 
        8700.00          0.1977          0.4121 
        8750.00          0.2069          0.4159 
        8800.00          0.2003          0.4273 
        8850.00          0.2136          0.4092 
        8900.00          0.1890          0.4136 
        8950.00          0.2127          0.4134 
        9000.00          0.1925          0.4159 
        9050.00          0.1715          0.4433 
        9100.00          0.1682          0.4262 
        9150.00          0.1951          0.4161 
        9200.00          0.2045          0.4208 
        9250.00          0.1711          0.4339 
        9300.00          0.2013          0.4081 
        9350.00          0.1619          0.4331 
        9400.00          0.1688          0.4220 
        9450.00          0.2105          0.3896 
        9500.00          0.2184          0.4099 
        9550.00          0.1973          0.4203 
        9600.00          0.1811          0.4300 
        9650.00          0.2024          0.4115 
        9700.00          0.1692          0.4335 
        9750.00          0.1175          0.4573 
        9800.00          0.1856          0.4309 
        9850.00          0.1750          0.4269 
        9900.00          0.2056          0.3998 
        9950.00          0.1470          0.4374 
       10000.00          0.1534          0.4359 
       10050.00          0.1113          0.4559 
       10100.00          0.0533          0.4521 
       10150.00          0.1022          0.4429 
       10200.00          0.0536          0.4481 
       10250.00          0.0551          0.4493 
       10300.00          0.1789          0.4264 
       10350.00          0.1563          0.4434 
       10400.00          0.1180          0.4501 
       10450.00          0.0796          0.4716 
       10500.00          0.0925          0.4437 
       10550.00          0.0957          0.4590 
       10600.00          0.0991          0.4377 
       10650.00          0.1372          0.4474 
       10700.00          0.1098          0.4694 
       10750.00          0.1057          0.4543 
       10800.00          0.0477          0.4650 
       10850.00          0.0686          0.4515 
       10900.00          0.0892          0.4474 
       10950.00          0.1024          0.4706 
       11000.00          0.1525          0.4401 
       11050.00          0.1919          0.4350 
       11100.00          0.2245          0.4015 
       11150.00          0.1818          0.4248 
       11200.00          0.1874          0.4241 
       11250.00          0.1963          0.4249 
       11300.00          0.2013          0.4296 
       11350.00          0.2326          0.4171 
       11400.00          0.2224          0.4054 
       11450.00          0.2115          0.4378 
       11500.00          0.2066          0.4205 
       11550.00          0.2324          0.4115 
       11600.00          0.2643          0.3954 
       11650.00          0.2135          0.4418 
       11700.00          0.2110          0.4415 
       11750.00          0.1816          0.4564 
       11800.00          0.1826          0.4482 
       11850.00          0.2215          0.4045 
       11900.00          0.2326          0.4053 
       11950.00          0.1942          0.4256 
       12000.00          0.2476          0.3845 
       12050.00          0.2301          0.3882 
       12100.00          0.1969          0.4170 
       12150.00          0.1863          0.4229 
       12200.00          0.1880          0.4203 
       12250.00          0.1810          0.4336 
       12300.00          0.1985          0.4272 
       12350.00          0.1827          0.4342 
       12400.00          0.1840          0.4289 
       12450.00          0.1715          0.4298 
       12500.00          0.2096          0.4086 
       12550.00          0.2227          0.3890 
       12600.00          0.2266          0.4045 
       12650.00          0.1688          0.4283 
       12700.00          0.2035          0.4163 
       12750.00          0.1567          0.4291 
       12800.00          0.2077          0.4097 
       12850.00          0.1686          0.4280 
       12900.00          0.2133          0.4103 
       12950.00          0.1901          0.4265 
       13000.00          0.2135          0.4052 
       13050.00          0.1852          0.4308 
       13100.00          0.1912          0.4222 
       13150.00          0.1987          0.4305 
       13200.00          0.1728          0.4381 
       13250.00          0.2001          0.4266 
       13300.00          0.1836          0.4276 
       13350.00          0.1820          0.4310 
       13400.00          0.1640          0.4266 
       13450.00          0.1658          0.4350 
       13500.00          0.1786          0.4388 
       13550.00          0.1705          0.4392 
       13600.00          0.1774          0.4201 
       13650.00          0.1711          0.4340 
       13700.00          0.1977          0.4151 
       13750.00          0.1963          0.4208 
       13800.00          0.1758          0.4257 
       13850.00          0.1709          0.4292 
       13900.00          0.1792          0.4304 
       13950.00          0.1284          0.4539 
       14000.00          0.1633          0.4334 
       14050.00          0.2085          0.4179 
       14100.00          0.2422          0.3851 
       14150.00          0.2100          0.4163 
       14200.00          0.2121          0.4096 
       14250.00          0.1931          0.4210 
       14300.00          0.1871          0.4164 
       14350.00          0.1577          0.4564 
       14400.00          0.1349          0.4610 
       14450.00          0.1876          0.4258 
       14500.00          0.1777          0.4257 
       14550.00          0.2233          0.4008 
       14600.00          0.1953          0.4142 
       14650.00          0.1751          0.4185 
       14700.00          0.1753          0.4288 
       14750.00          0.1841          0.4381 
       14800.00          0.1938          0.4204 
       14850.00          0.2545          0.3894 
       14900.00          0.2217          0.4100 
       14950.00          0.1885          0.4193 
       15000.00          0.1764          0.4349 
       15050.00          0.1891          0.4201 
       15100.00          0.1685          0.4282 
       15150.00          0.2028          0.4214 
       15200.00          0.1818          0.4259 
       15250.00          0.2003          0.4335 
       15300.00          0.1825          0.4228 
       15350.00          0.1607          0.4388 
       15400.00          0.1588          0.4434 
       15450.00          0.1776          0.4194 
       15500.00          0.1597          0.4308 
       15550.00          0.0825          0.4522 
       15600.00          0.0974          0.4348 
       15650.00          0.1037          0.4357 
       15700.00          0.1264          0.4280 
       15750.00          0.0860          0.4414 
       15800.00          0.1301          0.4328 
       15850.00          0.1344          0.4477 
       15900.00          0.1445          0.4442 
       15950.00          0.1759          0.4328 
       16000.00          0.1859          0.4205 
       16050.00          0.1520          0.4378 
       16100.00          0.1702          0.4317 
       16150.00          0.1598          0.4431 
       16200.00          0.2182          0.4186 
       16250.00          0.1737          0.4221 
       16300.00          0.2080          0.4008 
       16350.00          0.1982          0.4146 
       16400.00          0.2327          0.4034 
       16450.00          0.2284          0.4097 
       16500.00          0.2158          0.3950 
       16550.00          0.1742          0.4315 
       16600.00          0.1889          0.4262 
       16650.00          0.2044          0.4047 
       16700.00          0.2360          0.3790 
       16750.00          0.1939          0.4301 
       16800.00          0.2360          0.4075 
       16850.00          0.1984          0.4186 
       16900.00          0.1977          0.4109 
       16950.00          0.1937          0.4219 
       17000.00          0.1899          0.4272 
       17050.00          0.1944          0.4283 
       17100.00          0.2220          0.4021 
       17150.00          0.2268          0.3949 
       17200.00          0.2339          0.3812 
       17250.00          0.2057          0.4204 
       17300.00          0.1933          0.4295 
       17350.00          0.1933          0.4202 
       17400.00          0.1986          0.4075 
       17450.00          0.1970          0.4150 
       17500.00          0.1405          0.4513 
       17550.00          0.1189          0.4534 
       17600.00          0.1979          0.4280 
       17650.00          0.1829          0.4330 
       17700.00          0.1500          0.4462 
       17750.00          0.1905          0.4295 
       17800.00          0.2151          0.4110 
       17850.00          0.2025          0.4161 
       17900.00          0.1779          0.4267 
       17950.00          0.2059          0.4045 
       18000.00          0.1953          0.4220 
       18050.00          0.1904          0.4274 
       18100.00          0.2068          0.4049 
       18150.00          0.1713          0.4354 
       18200.00          0.2169          0.4046 
       18250.00          0.2118          0.4039 
       18300.00          0.1571          0.4377 
       18350.00          0.1915          0.4198 
       18400.00          0.1519          0.4350 
       18450.00          0.1763          0.4317 
       18500.00          0.1962          0.4233 
       18550.00          0.1408          0.4434 
       18600.00          0.1348          0.4173 
       18650.00          0.1540          0.4394 
       18700.00          0.1396          0.4547 
       18750.00          0.2147          0.4091 
       18800.00          0.2153          0.4014 
       18850.00          0.1873          0.4218 
       18900.00          0.2504          0.4084 
       18950.00          0.2425          0.3891 
       19000.00          0.2012          0.4120 
       19050.00          0.1972          0.4153 
       19100.00          0.1816          0.4276 
       19150.00          0.2128          0.4126 
       19200.00          0.1870          0.4287 
       19250.00          0.1419          0.4467 
       19300.00          0.1298          0.4584 
       19350.00          0.1569          0.4442 
       19400.00          0.1397          0.4550 
       19450.00          0.1964          0.4189 
       19500.00          0.1904          0.4206 
       19550.00          0.1936          0.4238 
       19600.00          0.2427          0.3797 
       19650.00          0.2048          0.4081 
       19700.00          0.1794          0.4311 
       19750.00          0.1135          0.4628 
       19800.00          0.1118          0.4417 
       19850.00          0.0881          0.4435 
       19900.00          0.0652          0.4343 
       19950.00          0.0672          0.4588 
       20000.00          0.0612          0.4394 
       20050.00          0.0700          0.4424 
       20100.00          0.0936          0.4395 
       20150.00          0.0495          0.4413 
       20200.00          0.0575          0.4460 
       20250.00          0.1051          0.4267 
       20300.00          0.1047          0.4365 
       20350.00          0.0735          0.4535 
       20400.00          0.1156          0.4251 
       20450.00          0.0883          0.4405 
       20500.00          0.0574          0.4433 
       20550.00          0.0749          0.4345 
       20600.00          0.0512          0.4480 
       20650.00          0.0566          0.4416 
       20700.00          0.1073          0.4372 
       20750.00          0.0727          0.4446 
       20800.00          0.0942          0.4376 
       20850.00          0.0604          0.4425 
       20900.00          0.0575          0.4460 
       20950.00          0.0554          0.4515 
       21000.00          0.0923          0.4303 
       21050.00          0.0275          0.4430 
       21100.00          0.0906          0.4387 
       21150.00          0.0707          0.4423 
       21200.00          0.1093          0.4267 
       21250.00          0.1181          0.4279 
       21300.00          0.0762          0.4468 
       21350.00          0.1490          0.4125 
       21400.00          0.1529          0.4262 
       21450.00          0.1360          0.4245 
       21500.00          0.0558          0.4396 
       21550.00          0.0692          0.4466 
       21600.00          0.0853          0.4260 
       21650.00          0.0657          0.4412 
       21700.00          0.0540          0.4433 
       21750.00          0.0614          0.4538 
       21800.00          0.0581          0.4348 
       21850.00          0.0686          0.4343 
       21900.00          0.0739          0.4444 
       21950.00          0.0865          0.4480 
       22000.00          0.0910          0.4369 
       22050.00          0.0715          0.4515 
       22100.00          0.0602          0.4502 
       22150.00          0.0821          0.4329 
       22200.00          0.0564          0.4382 
       22250.00          0.0347          0.4495 
       22300.00          0.0408          0.4515 
       22350.00          0.0467          0.4405 
       22400.00          0.0671          0.4407 
       22450.00          0.0839          0.4371 
       22500.00          0.0744          0.4378 
       22550.00          0.0671          0.4323 
       22600.00          0.1075          0.4388 
       22650.00          0.0549          0.4490 
       22700.00          0.0948          0.4402 
       22750.00          0.0925          0.4231 
       22800.00          0.0446          0.4449 
       22850.00          0.0762          0.4535 
       22900.00          0.0657          0.4478 
       22950.00          0.0846          0.4300 
       23000.00          0.0820          0.4410 
       23050.00          0.0922          0.4326 
       23100.00          0.0876          0.4336 
       23150.00          0.0486          0.4481 
       23200.00          0.0862          0.4495 
       23250.00          0.0696          0.4387 
       23300.00          0.0621          0.4483 
       23350.00          0.0403          0.4618 
       23400.00          0.0478          0.4373 
       23450.00          0.0276          0.4520 
       23500.00          0.0675          0.4472 
       23550.00          0.0489          0.4515 
       23600.00          0.0341          0.4538 
       23650.00          0.0873          0.4411 
       23700.00          0.0661          0.4442 
       23750.00          0.0325          0.4424 
       23800.00          0.0643          0.4459 
       23850.00          0.0598          0.4427 
       23900.00          0.0554          0.4434 
       23950.00          0.0684          0.4457 
       24000.00          0.0787          0.4601 
       24050.00          0.0616          0.4466 
       24100.00          0.0733          0.4459 
       24150.00          0.1041          0.4359 
       24200.00          0.0465          0.4497 
       24250.00          0.0324          0.4533 
       24300.00          0.0560          0.4551 
       24350.00          0.0731          0.4477 
       24400.00          0.0481          0.4392 
       24450.00          0.0434          0.4302 
       24500.00          0.0456          0.4549 
       24550.00          0.0900          0.4501 
       24600.00          0.0520          0.4477 
       24650.00          0.0629          0.4451 
       24700.00          0.0600          0.4337 
       24750.00          0.0970          0.4339 
       24800.00          0.0875          0.4460 
       24850.00          0.0834          0.4382 
       24900.00          0.0724          0.4421 
       24950.00          0.0524          0.4445 
       25000.00          0.0738          0.4449 
       25050.00          0.0518          0.4565 
       25100.00          0.0694          0.4544 
       25150.00          0.0434          0.4596 
       25200.00          0.1176          0.4281 
       25250.00          0.1092          0.4287 
       25300.00          0.1620          0.4037 
       25350.00          0.1325          0.4423 
       25400.00          0.0401          0.4649 
       25450.00          0.0541          0.4530 
       25500.00          0.0345          0.4498 
       25550.00          0.1154          0.4347 
       25600.00          0.0399          0.4513 
       25650.00          0.0487          0.4540 
       25700.00          0.0749          0.4349 
       25750.00          0.0753          0.4225 
       25800.00          0.0715          0.4421 
       25850.00          0.0586          0.4454 
       25900.00          0.0713          0.4479 
       25950.00          0.0596          0.4408 
       26000.00          0.0855          0.4390 
       26050.00          0.0676          0.4537 
       26100.00          0.0746          0.4431 
       26150.00          0.0666          0.4470 
       26200.00          0.0735          0.4429 
       26250.00          0.0618          0.4413 
       26300.00          0.0579          0.4330 
       26350.00          0.1073          0.4355 
       26400.00          0.1085          0.4338 
       26450.00          0.0754          0.4514 
       26500.00          0.0535          0.4542 
       26550.00          0.0693          0.4354 
       26600.00          0.0538          0.4572 
       26650.00          0.0715          0.4353 
       26700.00          0.0495          0.4361 
       26750.00          0.1262          0.4381 
       26800.00          0.1335          0.4320 
       26850.00          0.1195          0.4278 
       26900.00          0.1263          0.4201 
       26950.00          0.1096          0.4278 
       27000.00          0.0521          0.4497 
       27050.00          0.0730          0.4449 
       27100.00          0.0287          0.4501 
       27150.00          0.0749          0.4529 
       27200.00          0.0561          0.4470 
       27250.00          0.0715          0.4480 
       27300.00          0.1176          0.4317 
       27350.00          0.0600          0.4519 
       27400.00          0.0813          0.4450 
       27450.00          0.0918          0.4314 
       27500.00          0.0647          0.4407 
       27550.00          0.0696          0.4439 
       27600.00          0.0645          0.4440 
       27650.00          0.0678          0.4439 
       27700.00          0.0639          0.4347 
       27750.00          0.0564          0.4578 
       27800.00          0.1126          0.4361 
       27850.00          0.0413          0.4403 
       27900.00          0.0782          0.4456 
       27950.00          0.0476          0.4411 
       28000.00          0.0986          0.4211 
       28050.00          0.0814          0.4346 
       28100.00          0.0649          0.4582 
       28150.00          0.0667          0.4502 
       28200.00          0.0857          0.4331 
       28250.00          0.1204          0.4353 
       28300.00          0.1352          0.4140 
       28350.00          0.1383          0.4167 
       28400.00          0.0752          0.4622 
       28450.00          0.0973          0.4720 
       28500.00          0.0955          0.4740 
       28550.00          0.0853          0.4678 
       28600.00          0.0395          0.4610 
       28650.00          0.0670          0.4528 
       28700.00          0.0866          0.4706 
       28750.00          0.1059          0.4563 
       28800.00          0.0846          0.4563 
       28850.00          0.1072          0.4686 
       28900.00          0.1351          0.4498 
       28950.00          0.1376          0.4700 
       29000.00          0.1179          0.4588 
       29050.00          0.1144          0.4646 
       29100.00          0.1299          0.4515 
       29150.00          0.1628          0.4395 
       29200.00          0.1871          0.4245 
       29250.00          0.1192          0.4591 
       29300.00          0.1396          0.4325 
       29350.00          0.1566          0.4209 
       29400.00          0.0516          0.4526 
       29450.00          0.1242          0.4499 
       29500.00          0.2255          0.4087 
       29550.00          0.2395          0.3969 
       29600.00          0.2594          0.3908 
       29650.00          0.2681          0.3732 
       29700.00          0.2184          0.4088 
       29750.00          0.2240          0.4144 
       29800.00          0.2278          0.4052 
       29850.00          0.1846          0.4157 
       29900.00          0.2083          0.4130 
       29950.00          0.1674          0.4136 
       30000.00          0.2130          0.4130 
       30050.00          0.1637          0.4245 
       30100.00          0.1959          0.4026 
       30150.00          0.2041          0.3979 
       30200.00          0.1933          0.4054 
       30250.00          0.1840          0.4030 
       30300.00          0.2353          0.3809 
       30350.00          0.1500          0.4327 
       30400.00          0.1837          0.4071 
       30450.00          0.1353          0.4246 
       30500.00          0.2140          0.3939 
       30550.00          0.2162          0.4017 
       30600.00          0.1796          0.3998 
       30650.00          0.2149          0.3874 
       30700.00          0.1980          0.3840 
       30750.00          0.1874          0.4119 
       30800.00          0.1441          0.4063 
       30850.00          0.1785          0.4099 
       30900.00          0.1826          0.4027 
       30950.00          0.0725          0.4517 
       31000.00          0.0999          0.4318 
       31050.00          0.0677          0.4441 
       31100.00          0.0592          0.4419 
       31150.00          0.0814          0.4367 
       31200.00          0.0618          0.4407 
       31250.00          0.0620          0.4576 
       31300.00          0.1059          0.4459 
       31350.00          0.0598          0.4371 
       31400.00          0.0768          0.4464 
       31450.00          0.0603          0.4490 
       31500.00          0.0505          0.4479 
       31550.00          0.0761          0.4498 
       31600.00          0.0569          0.4315 
       31650.00          0.0541          0.4375 
       31700.00          0.0404          0.4540 
       31750.00          0.0326          0.4414 
       31800.00          0.0531          0.4512 
       31850.00          0.0340          0.4426 
       31900.00          0.0578          0.4437 
       31950.00          0.0420          0.4454 
       32000.00          0.0654          0.4385 
       32050.00          0.0788          0.4492 
       32100.00          0.0881          0.4329 
       32150.00          0.0303          0.4527 
       32200.00          0.0528          0.4502 
       32250.00          0.0654          0.4406 
       32300.00          0.0654          0.4418 
       32350.00          0.0329          0.4498 
       32400.00          0.0616          0.4547 
       32450.00          0.0852          0.4359 
       32500.00          0.0510          0.4530 
       32550.00          0.0588          0.4501 
       32600.00          0.0708          0.4373 
       32650.00          0.0465          0.4454 
       32700.00          0.0627          0.4530 
       32750.00          0.0535          0.4478 
       32800.00          0.0747          0.4457 
       32850.00          0.0656          0.4338 
       32900.00          0.0642          0.4456 
       32950.00          0.0604          0.4430 
       33000.00          0.0984          0.4427 
       33050.00          0.0999          0.4371 
       33100.00          0.0472          0.4483 
       33150.00          0.0832          0.4330 
       33200.00          0.0658          0.4478 
       33250.00          0.0512          0.4591 
       33300.00          0.0432          0.4434 
       33350.00          0.0601          0.4454 
       33400.00          0.0634          0.4435 
       33450.00          0.0293          0.4560 
       33500.00          0.0581          0.4437 
       33550.00          0.1104          0.4281 
       33600.00          0.0694          0.4409 
       33650.00          0.0923          0.4362 
       33700.00          0.0793          0.4598 
       33750.00          0.0852          0.4499 
       33800.00          0.0634          0.4495 
       33850.00          0.0541          0.4456 
       33900.00          0.0577          0.4578 
       33950.00          0.0504          0.4566 
       34000.00          0.0448          0.4463 
       34050.00          0.0528          0.4505 
       34100.00          0.0812          0.4348 
       34150.00          0.0687          0.4388 
       34200.00          0.0730          0.4438 
       34250.00          0.0398          0.4430 
       34300.00          0.0656          0.4430 
       34350.00          0.0852          0.4462 
       34400.00          0.0625          0.4442 
       34450.00          0.0742          0.4363 
       34500.00          0.1089          0.4407 
       34550.00          0.0583          0.4250 
       34600.00          0.0799          0.4377 
       34650.00          0.0803          0.4475 
       34700.00          0.0831          0.4514 
       34750.00          0.0356          0.4555 
       34800.00          0.0535          0.4482 
       34850.00          0.0835          0.4430 
       34900.00          0.0835          0.4547 
       34950.00          0.0595          0.4495 
       35000.00          0.0638          0.4688 
       35050.00          0.0765          0.4381 
       35100.00          0.0585          0.4532 
       35150.00          0.0857          0.4477 
       35200.00          0.0460          0.4468 
       35250.00          0.0639          0.4484 
       35300.00          0.0947          0.4398 
       35350.00          0.0581          0.4454 
       35400.00          0.0525          0.4420 
       35450.00          0.0622          0.4496 
       35500.00          0.0400          0.4449 
       35550.00          0.0915          0.4419 
       35600.00          0.0734          0.4389 
       35650.00          0.1417          0.4098 
       35700.00          0.0996          0.4389 
       35750.00          0.0570          0.4405 
       35800.00          0.0652          0.4431 
       35850.00          0.0703          0.4523 
       35900.00          0.0665          0.4477 
       35950.00          0.0754          0.4381 
       36000.00          0.0657          0.4349 
       36050.00          0.0851          0.4281 
       36100.00          0.0756          0.4472 
       36150.00          0.0783          0.4436 
       36200.00          0.0491          0.4433 
       36250.00          0.0403          0.4503 
       36300.00          0.0862          0.4314 
       36350.00          0.1048          0.4391 
       36400.00          0.0786          0.4304 
       36450.00          0.0544          0.4467 
       36500.00          0.0524          0.4375 
       36550.00          0.1201          0.4217 
       36600.00          0.0582          0.4289 
       36650.00          0.0661          0.4374 
       36700.00          0.0740          0.4420 
       36750.00          0.0591          0.4487 
       36800.00          0.0668          0.4363 
       36850.00          0.0463          0.4540 
       36900.00          0.0686          0.4395 
       36950.00          0.0504          0.4476 
       37000.00          0.0594          0.4511 
       37050.00          0.0767          0.4466 
       37100.00          0.0763          0.4355 
       37150.00          0.1112          0.4315 
       37200.00          0.0415          0.4408 
       37250.00          0.0505          0.4452 
       37300.00          0.0713          0.4465 
       37350.00          0.0691          0.4448 
       37400.00          0.0524          0.4383 
       37450.00          0.0723          0.4478 
       37500.00          0.0600          0.4409 
       37550.00          0.0578          0.4417 
       37600.00          0.0693          0.4483 
       37650.00          0.1119          0.4117 
       37700.00          0.0474          0.4446 
       37750.00          0.0582          0.4440 
       37800.00          0.0544          0.4409 
       37850.00          0.0675          0.4399 
       37900.00          0.0679          0.4491 
       37950.00          0.0446          0.4461 
       38000.00          0.0621          0.4416 
       38050.00          0.0652          0.4489 
       38100.00          0.0876          0.4480 
       38150.00          0.0507          0.4429 
       38200.00          0.0935          0.4362 
       38250.00          0.0387          0.4551 
       38300.00          0.0359          0.4476 
       38350.00          0.0675          0.4557 
       38400.00          0.0371          0.4395 
       38450.00          0.0601          0.4404 
       38500.00          0.1369          0.4191 
       38550.00          0.0984          0.4428 
       38600.00          0.0832          0.4401 
       38650.00          0.0686          0.4321 
       38700.00          0.0674          0.4375 
       38750.00          0.0455          0.4482 
       38800.00          0.0598          0.4419 
       38850.00          0.0589          0.4413 
       38900.00          0.0659          0.4450 
       38950.00          0.0738          0.4276 
       39000.00          0.0615          0.4478 
       39050.00          0.0868          0.4472 
       39100.00          0.0949          0.4439 
       39150.00          0.0432          0.4373 
       39200.00          0.0337          0.4452 
       39250.00          0.0468          0.4653 
       39300.00          0.0833          0.4416 
       39350.00          0.0994          0.4382 
       39400.00          0.0564          0.4418 
       39450.00          0.0593          0.4396 
       39500.00          0.0611          0.4411 
       39550.00          0.0719          0.4490 
       39600.00          0.0622          0.4529 
       39650.00          0.0912          0.4341 
       39700.00          0.0613          0.4453 
       39750.00          0.0589          0.4419 
       39800.00          0.0606          0.4472 
       39850.00          0.0314          0.4456 
       39900.00          0.0457          0.4503 
       39950.00          0.0566          0.4417 
       40000.00          0.0752          0.4464 
       40050.00          0.0676          0.4430 
       40100.00          0.0546          0.4544 
       40150.00          0.0726          0.4482 
       40200.00          0.0476          0.4530 
       40250.00          0.0680          0.4544 
       40300.00          0.0502          0.4442 
       40350.00          0.0696          0.4397 
       40400.00          0.0884          0.4379 
       40450.00          0.0978          0.4320 
       40500.00          0.0821          0.4407 
       40550.00          0.0797          0.4439 
       40600.00          0.0674          0.4396 
       40650.00          0.0441          0.4471 
       40700.00          0.0616          0.4481 
       40750.00          0.0942          0.4281 
       40800.00          0.0709          0.4463 
       40850.00          0.1001          0.4356 
       40900.00          0.0289          0.4507 
       40950.00          0.1153          0.4265 
       41000.00          0.0889          0.4369 
       41050.00          0.1353          0.4406 
       41100.00          0.1681          0.4326 
       41150.00          0.1314          0.4413 
       41200.00          0.0881          0.4793 
       41250.00          0.0755          0.4541 
       41300.00          0.0529          0.4569 
       41350.00          0.0887          0.4382 
       41400.00          0.0744          0.4494 
       41450.00          0.0644          0.4357 
       41500.00          0.0978          0.4353 
       41550.00          0.0857          0.4298 
       41600.00          0.0863          0.4379 
       41650.00          0.0647          0.4428 
       41700.00          0.0803          0.4407 
       41750.00          0.0511          0.4509 
       41800.00          0.0760          0.4289 
       41850.00          0.0673          0.4385 
       41900.00          0.0888          0.4279 
       41950.00          0.0686          0.4601 
       42000.00          0.0665          0.4343 
       42050.00          0.0832          0.4348 
       42100.00          0.1193          0.4341 
       42150.00          0.0930          0.4355 
       42200.00          0.0964          0.4368 
       42250.00          0.1011          0.4246 
       42300.00          0.1187          0.4260 
       42350.00          0.0563          0.4347 
       42400.00          0.0765          0.4360 
       42450.00          0.0676          0.4505 
       42500.00          0.0456          0.4582 
       42550.00          0.0346          0.4372 
       42600.00          0.0619          0.4385 
       42650.00          0.0355          0.4495 
       42700.00          0.0409          0.4360 
       42750.00          0.0705          0.4448 
       42800.00          0.0544          0.4540 
       42850.00          0.0513          0.4406 
       42900.00          0.0496          0.4405 
       42950.00          0.0291          0.4535 
       43000.00          0.0428          0.4488 
       43050.00          0.0780          0.4470 
       43100.00          0.0689          0.4447 
       43150.00          0.0727          0.4424 
       43200.00          0.0915          0.4468 
       43250.00          0.0691          0.4347 
       43300.00          0.0473          0.4484 
       43350.00          0.0980          0.4373 
       43400.00          0.1718          0.4091 
       43450.00          0.1950          0.4034 
       43500.00          0.1670          0.4305 
       43550.00          0.1602          0.4511 
       43600.00          0.1200          0.4684 
       43650.00          0.0979          0.4769 
       43700.00          0.1594          0.4386 
       43750.00          0.1520          0.4339 
       43800.00          0.0992          0.4581 
       43850.00          0.1347          0.4389 
       43900.00          0.1663          0.4294 
       43950.00          0.2131          0.3797 
       44000.00          0.2104          0.3848 
       44050.00          0.1904          0.3910 
       44100.00          0.0990          0.4388 
       44150.00          0.0577          0.4415 
       44200.00          0.0671          0.4404 
       44250.00          0.0518          0.4396 
       44300.00          0.0745          0.4503 
       44350.00          0.0660          0.4498 
       44400.00          0.0652          0.4294 
       44450.00          0.0573          0.4380 
       44500.00          0.0636          0.4474 
       44550.00          0.0323          0.4421 
       44600.00          0.0878          0.4445 
       44650.00          0.0526          0.4447 
       44700.00          0.0617          0.4487 
       44750.00          0.1336          0.4221 
       44800.00          0.0959          0.4376 
       44850.00          0.0774          0.4444 
       44900.00          0.0482          0.4479 
       44950.00          0.1223          0.4240 
       45000.00          0.0618          0.4401 
       45050.00          0.0708          0.4419 
       45100.00          0.0828          0.4374 
       45150.00          0.0766          0.4365 
       45200.00          0.0369          0.4512 
       45250.00          0.0545          0.4465 
       45300.00          0.0611          0.4295 
       45350.00          0.0704          0.4619 
       45400.00          0.0736          0.4404 
       45450.00          0.0348          0.4424 
       45500.00          0.0688          0.4370 
       45550.00          0.0644          0.4499 
       45600.00          0.0551          0.4392 
       45650.00          0.0869          0.4402 
       45700.00          0.0530          0.4558 
       45750.00          0.0411          0.4383 
       45800.00          0.0503          0.4542 
       45850.00          0.0556          0.4401 
       45900.00          0.0659          0.4536 
       45950.00          0.0261          0.4503 
       46000.00          0.0752          0.4432 
       46050.00          0.0839          0.4503 
       46100.00          0.0448          0.4383 
       46150.00          0.0445          0.4539 
       46200.00          0.0576          0.4421 
       46250.00          0.0501          0.4576 
       46300.00          0.0729          0.4399 
       46350.00          0.0534          0.4415 
       46400.00          0.0705          0.4568 
       46450.00          0.0891          0.4464 
       46500.00          0.0809          0.4582 
       46550.00          0.1064          0.4337 
       46600.00          0.1873          0.4132 
       46650.00          0.1185          0.4584 
       46700.00          0.2119          0.4148 
       46750.00          0.1663          0.4290 
       46800.00          0.2057          0.4109 
       46850.00          0.2047          0.4199 
       46900.00          0.1514          0.4503 
       46950.00          0.1572          0.4297 
       47000.00          0.1862          0.4334 
       47050.00          0.2046          0.4189 
       47100.00          0.2075          0.4263 
       47150.00          0.1763          0.4247 
       47200.00          0.1820          0.4203 
       47250.00          0.1872          0.4172 
       47300.00          0.2216          0.4023 
       47350.00          0.1996          0.4110 
       47400.00          0.1770          0.4488 
       47450.00          0.1002          0.4684 
       47500.00          0.2042          0.4094 
       47550.00          0.1385          0.4422 
       47600.00          0.2138          0.3976 
       47650.00          0.2284          0.3944 
       47700.00          0.1516          0.4453 
       47750.00          0.1221          0.4559 
       47800.00          0.1263          0.4613 
       47850.00          0.1711          0.4285 
       47900.00          0.1153          0.4489 
       47950.00          0.1536          0.4390 
       48000.00          0.1590          0.4424 
       48050.00          0.2417          0.3843 
       48100.00          0.2129          0.4105 
       48150.00          0.1786          0.4279 
       48200.00          0.1453          0.4470 
       48250.00          0.1028          0.4579 
       48300.00          0.1578          0.4477 
       48350.00          0.1472          0.4483 
       48400.00          0.1996          0.4007 
       48450.00          0.2315          0.3975 
       48500.00          0.2111          0.4217 
       48550.00          0.1844          0.4303 
       48600.00          0.1956          0.4199 
       48650.00          0.2328          0.3953 
       48700.00          0.1927          0.4232 
       48750.00          0.2047          0.4231 
       48800.00          0.1852          0.4299 
       48850.00          0.2019          0.4134 
       48900.00          0.1621          0.4389 
       48950.00          0.1167          0.4501 
       49000.00          0.1878          0.4350 
       49050.00          0.1601          0.4503 
       49100.00          0.1619          0.4386 
       49150.00          0.1960          0.4191 
       49200.00          0.1809          0.4203 
       49250.00          0.1763          0.4266 
       49300.00          0.1860          0.4507 
       49350.00          0.1327          0.4685 
       49400.00          0.1596          0.4566 
       49450.00          0.1518          0.4353 
       49500.00          0.1463          0.4313 
       49550.00          0.2346          0.4204 
       49600.00          0.1398          0.4354 
       49650.00          0.2540          0.4007 
       49700.00          0.2483          0.4047 
       49750.00          0.2643          0.4117 
       49800.00          0.2927          0.3727 
       49850.00          0.2870          0.3825 
       49900.00          0.2605          0.3969 
       49950.00          0.2803          0.3926 
       50000.00          0.2458          0.3838 
       50050.00          0.2664          0.3843 
       50100.00          0.2371          0.4034 
       50150.00          0.2473          0.4437 
       50200.00          0.2373          0.4660 
       50250.00          0.2085          0.4659 
       50300.00          0.2166          0.4885 
       50350.00          0.2252          0.5115 
       50400.00          0.2412          0.5200 
       50450.00          0.2199          0.4637 
       50500.00          0.2466          0.4668 
       50550.00          0.2534          0.4209 
       50600.00          0.2682          0.4001 
       50650.00          0.2980          0.4050 
       50700.00          0.2762          0.4355 
       50750.00          0.2744          0.4441 
       50800.00          0.3034          0.4084 
       50850.00          0.2947          0.3822 
       50900.00          0.2926          0.3980 
       50950.00          0.2786          0.3920 
       51000.00          0.2283          0.4293 
       51050.00          0.2428          0.4487 
       51100.00          0.2301          0.4560 
       51150.00          0.2078          0.5104 
       51200.00          0.2548          0.4487 
       51250.00          0.2243          0.4488 
       51300.00          0.1893          0.4872 
       51350.00          0.1785          0.5103 
       51400.00          0.2651          0.4009 
       51450.00          0.2906          0.4057 
       51500.00          0.2907          0.4338 
       51550.00          0.2927          0.4007 
       51600.00          0.2996          0.3849 
       51650.00          0.2739          0.4103 
       51700.00          0.2287          0.4034 
       51750.00          0.2277          0.4189 
       51800.00          0.2172          0.4313 
       51850.00          0.2399          0.4166 
       51900.00          0.2816          0.4008 
       51950.00          0.2479          0.4527 
       52000.00          0.2869          0.3875 
       52050.00          0.3023          0.3793 
       52100.00          0.2368          0.4077 
       52150.00          0.2707          0.3888 
       52200.00          0.2036          0.4360 
       52250.00          0.2164          0.4299 
       52300.00          0.2372          0.4139 
       52350.00          0.2123          0.4265 
       52400.00          0.1629          0.4599 
       52450.00          0.2031          0.4227 
       52500.00          0.1995          0.4203 
       52550.00          0.1823          0.4222 
       52600.00          0.2035          0.4148 
       52650.00          0.1941          0.4226 
       52700.00          0.2181          0.4065 
       52750.00          0.2058          0.4082 
       52800.00          0.1833          0.4257 
       52850.00          0.1882          0.4326 
       52900.00          0.2075          0.4152 
       52950.00          0.2004          0.4199 
       53000.00          0.1921          0.4231 
       53050.00          0.1955          0.4184 
       53100.00          0.2027          0.4228 
       53150.00          0.2257          0.4136 
       53200.00          0.2053          0.4300 
       53250.00          0.1951          0.4155 
       53300.00          0.2061          0.4171 
       53350.00          0.1750          0.4364 
       53400.00          0.1944          0.4193 
       53450.00          0.1599          0.4387 
       53500.00          0.1454          0.4305 
       53550.00          0.2165          0.3972 
       53600.00          0.1943          0.4240 
       53650.00          0.1750          0.4213 
       53700.00          0.1796          0.4359 
       53750.00          0.1934          0.4367 
       53800.00          0.1497          0.4585 
       53850.00          0.1617          0.4454 
       53900.00          0.1604          0.4465 
       53950.00          0.1835          0.4303 
       54000.00          0.2113          0.4043 
       54050.00          0.1040          0.4714 
       54100.00          0.1266          0.4680 
       54150.00          0.1856          0.4372 
       54200.00          0.1522          0.4477 
       54250.00          0.1733          0.4572 
       54300.00          0.1252          0.4436 
       54350.00          0.0593          0.4566 
       54400.00          0.0642          0.4633 
       54450.00          0.0927          0.4429 
       54500.00          0.0963          0.4538 
       54550.00          0.0867          0.4473 
       54600.00          0.1081          0.4365 
       54650.00          0.0865          0.4484 
       54700.00          0.0342          0.4515 
       54750.00          0.0713          0.4562 
       54800.00          0.0476          0.4412 
       54850.00          0.0934          0.4355 
       54900.00          0.0755          0.4449 
       54950.00          0.0845          0.4396 
       55000.00          0.0533          0.4380 
       55050.00          0.0699          0.4473 
       55100.00          0.0731          0.4560 
       55150.00          0.0475          0.4460 
       55200.00          0.0950          0.4416 
       55250.00          0.0297          0.4496 
       55300.00          0.0567          0.4424 
       55350.00          0.0748          0.4404 
       55400.00          0.0732          0.4435 
       55450.00          0.0492          0.4479 
       55500.00          0.0289          0.4497 
       55550.00          0.0766          0.4431 
       55600.00          0.0728          0.4494 
       55650.00          0.0631          0.4511 
       55700.00          0.0348          0.4397 
       55750.00          0.0578          0.4449 
       55800.00          0.0535          0.4514 
       55850.00          0.1243          0.4524 
       55900.00          0.1509          0.4451 
       55950.00          0.1223          0.4437 
       56000.00          0.1545          0.4404 
       56050.00          0.1737          0.4174 
       56100.00          0.2085          0.4124 
       56150.00          0.1993          0.4183 
       56200.00          0.1926          0.4265 
       56250.00          0.1611          0.4277 
       56300.00          0.1737          0.4356 
       56350.00          0.1644          0.4261 
       56400.00          0.1970          0.4275 
       56450.00          0.2220          0.4002 
       56500.00          0.2102          0.4076 
       56550.00          0.1881          0.4270 
       56600.00          0.2123          0.4066 
       56650.00          0.1950          0.4259 
       56700.00          0.1747          0.4324 
       56750.00          0.1879          0.4192 
       56800.00          0.1838          0.4345 
       56850.00          0.1611          0.4236 
       56900.00          0.1583          0.4346 
       56950.00          0.1685          0.4310 
       57000.00          0.1939          0.4308 
       57050.00          0.2092          0.4157 
       57100.00          0.1897          0.4229 
       57150.00          0.1942          0.4158 
       57200.00          0.2100          0.3998 
       57250.00          0.2250          0.4004 
       57300.00          0.2257          0.3978 
       57350.00          0.1925          0.4210 
       57400.00          0.2008          0.4214 
       57450.00          0.1761          0.4305 
       57500.00          0.2207          0.4066 
       57550.00          0.2439          0.3912 
       57600.00          0.2588          0.3748 
       57650.00          0.1896          0.4225 
       57700.00          0.2472          0.3985 
       57750.00          0.1662          0.4257 
       57800.00          0.1835          0.4275 
       57850.00          0.1888          0.4179 
       57900.00          0.2247          0.4039 
       57950.00          0.1837          0.4269 
       58000.00          0.2034          0.4098 
       58050.00          0.2165          0.4038 
       58100.00          0.2094          0.4063 
       58150.00          0.1823          0.4217 
       58200.00          0.1579          0.4402 
       58250.00          0.1642          0.4331 
       58300.00          0.1980          0.4194 
       58350.00          0.1495          0.4387 
       58400.00          0.1843          0.4333 
       58450.00          0.2269          0.4082 
       58500.00          0.1888          0.4203 
       58550.00          0.1271          0.4599 
       58600.00          0.0899          0.4541 
       58650.00          0.1571          0.4492 
       58700.00          0.1309          0.4487 
       58750.00          0.1895          0.4323 
       58800.00          0.1809          0.4279 
       58850.00          0.2177          0.4164 
       58900.00          0.1999          0.4197 
       58950.00          0.2279          0.3935 
       59000.00          0.1981          0.4165 
       59050.00          0.2017          0.4242 
       59100.00          0.1508          0.4297 
       59150.00          0.1814          0.4255 
       59200.00          0.1629          0.4410 
       59250.00          0.1767          0.4291 
       59300.00          0.2062          0.4110 
       59350.00          0.2077          0.4096 
       59400.00          0.1492          0.4389 
       59450.00          0.0922          0.4601 
       59500.00          0.0831          0.4570 
       59550.00          0.1213          0.4463 
       59600.00          0.1152          0.4501 
       59650.00          0.1475          0.4379 
       59700.00          0.1295          0.4503 
       59750.00          0.1319          0.4572 
       59800.00          0.1651          0.4253 
       59850.00          0.1832          0.4243 
       59900.00          0.1975          0.4215 
       59950.00          0.2002          0.4181 
       60000.00          0.2575          0.3871 
       60050.00          0.1665          0.4336 
       60100.00          0.1812          0.4278 
       60150.00          0.1868          0.4194 
       60200.00          0.1681          0.4263 
       60250.00          0.2294          0.4032 
       60300.00          0.2020          0.4249 
       60350.00          0.1878          0.4181 
       60400.00          0.1873          0.4250 
       60450.00          0.1801          0.4302 
       60500.00          0.1826          0.4175 
       60550.00          0.1662          0.4451 
       60600.00          0.1951          0.4235 
       60650.00          0.1960          0.4176 
       60700.00          0.1946          0.4291 
       60750.00          0.1796          0.4288 
       60800.00          0.2181          0.4101 
       60850.00          0.1277          0.4509 
       60900.00          0.1769          0.4301 
       60950.00          0.2108          0.4219 
       61000.00          0.2070          0.4203 
       61050.00          0.1708          0.4260 
       61100.00          0.1718          0.4266 
       61150.00          0.1951          0.4273 
       61200.00          0.1833          0.4215 
       61250.00          0.2186          0.4085 
       61300.00          0.2439          0.4063 
       61350.00          0.2321          0.3798 
       61400.00          0.2114          0.4078 
       61450.00          0.1888          0.4311 
       61500.00          0.1926          0.4239 
       61550.00          0.2305          0.3911 
       61600.00          0.2090          0.4221 
       61650.00          0.1909          0.4232 
       61700.00          0.1884          0.4169 
       61750.00          0.2319          0.4043 
       61800.00          0.1884          0.4166 
       61850.00          0.2091          0.4257 
       61900.00          0.1937          0.4207 
       61950.00          0.1163          0.4597 
       62000.00          0.1102          0.4503 
       62050.00          0.0749          0.4586 
       62100.00          0.0784          0.4610 
       62150.00          0.0717          0.4437 
       62200.00          0.0719          0.4610 
       62250.00          0.0490          0.4423 
       62300.00          0.1190          0.4469 
       62350.00          0.0990          0.4384 
       62400.00          0.1227          0.4255 
       62450.00          0.0840          0.4384 
       62500.00          0.0696          0.4344 
       62550.00          0.0555          0.4444 
       62600.00          0.1122          0.4338 
       62650.00          0.0865          0.4535 
       62700.00          0.0901          0.4401 
       62750.00          0.0764          0.4465 
       62800.00          0.1037          0.4306 
       62850.00          0.1485          0.4045 
       62900.00          0.0752          0.4500 
       62950.00          0.0547          0.4486 
       63000.00          0.0397          0.4513 
       63050.00          0.0566          0.4422 
       63100.00          0.1039          0.4378 
       63150.00          0.0535          0.4456 
       63200.00          0.0357          0.4399 
       63250.00          0.0790          0.4535 
       63300.00          0.0665          0.4352 
       63350.00          0.0661          0.4424 
       63400.00          0.0373          0.4550 
       63450.00          0.0562          0.4463 
       63500.00          0.0459          0.4576 
       63550.00          0.0595          0.4547 
       63600.00          0.0484          0.4477 
       63650.00          0.0522          0.4442 
       63700.00          0.0781          0.4525 
       63750.00          0.0758          0.4504 
       63800.00          0.1045          0.4222 
       63850.00          0.0679          0.4348 
       63900.00          0.0476          0.4497 
       63950.00          0.1055          0.4408 
       64000.00          0.0606          0.4306 
       64050.00          0.0855          0.4375 
       64100.00          0.0789          0.4439 
       64150.00          0.0620          0.4429 
       64200.00          0.0568          0.4451 
       64250.00          0.0583          0.4359 
       64300.00          0.0738          0.4406 
       64350.00          0.0581          0.4362 
       64400.00          0.0343          0.4483 
       64450.00          0.0460          0.4467 
       64500.00          0.0616          0.4540 
       64550.00          0.0557          0.4410 
       64600.00          0.0592          0.4547 
       64650.00          0.0559          0.4395 
       64700.00          0.0363          0.4453 
       64750.00          0.0483          0.4431 
       64800.00          0.0599          0.4406 
       64850.00          0.0638          0.4463 
       64900.00          0.0546          0.4508 
       64950.00          0.0364          0.4455 
       65000.00          0.0650          0.4556 
       65050.00          0.0596          0.4461 
       65100.00          0.0723          0.4520 
       65150.00          0.0881          0.4367 
       65200.00          0.0696          0.4387 
       65250.00          0.0671          0.4441 
       65300.00          0.0479          0.4496 
       65350.00          0.0475          0.4495 
       65400.00          0.0619          0.4390 
       65450.00          0.0609          0.4360 
       65500.00          0.0601          0.4439 
       65550.00          0.0735          0.4539 
       65600.00          0.0706          0.4382 
       65650.00          0.1347          0.4279 
       65700.00          0.0532          0.4461 
       65750.00          0.0661          0.4249 
       65800.00          0.0652          0.4281 
       65850.00          0.0808          0.4472 
       65900.00          0.0843          0.4354 
       65950.00          0.0608          0.4598 
       66000.00          0.1156          0.4370 
       66050.00          0.0581          0.4454 
       66100.00          0.0819          0.4420 
       66150.00          0.0662          0.4529 
       66200.00          0.1177          0.4221 
       66250.00          0.0701          0.4479 
       66300.00          0.0776          0.4412 
       66350.00          0.0589          0.4412 
       66400.00          0.0568          0.4461 
       66450.00          0.0707          0.4461 
       66500.00          0.0542          0.4380 
       66550.00          0.0733          0.4410 
       66600.00          0.0885          0.4379 
       66650.00          0.0993          0.4306 
       66700.00          0.0651          0.4588 
       66750.00          0.0794          0.4547 
       66800.00          0.0802          0.4402 
       66850.00          0.0660          0.4419 
       66900.00          0.0633          0.4347 
       66950.00          0.0382          0.4527 
       67000.00          0.0786          0.4428 
       67050.00          0.0523          0.4351 
       67100.00          0.0449          0.4352 
       67150.00          0.0657          0.4340 
       67200.00          0.0575          0.4407 
       67250.00          0.0739          0.4427 
       67300.00          0.0790          0.4393 
       67350.00          0.0416          0.4575 
       67400.00          0.0577          0.4411 
       67450.00          0.0780          0.4394 
       67500.00          0.0732          0.4366 
       67550.00          0.0562          0.4447 
       67600.00          0.0732          0.4440 
       67650.00          0.0724          0.4447 
       67700.00          0.0460          0.4426 
       67750.00          0.0628          0.4495 
       67800.00          0.0319          0.4531 
       67850.00          0.0262          0.4455 
       67900.00          0.0921          0.4295 
       67950.00          0.0491          0.4505 
       68000.00          0.0740          0.4466 
       68050.00          0.1091          0.4347 
       68100.00          0.1044          0.4291 
       68150.00          0.0677          0.4446 
       68200.00          0.0523          0.4346 
       68250.00          0.0717          0.4365 
       68300.00          0.1017          0.4339 
       68350.00          0.0536          0.4572 
       68400.00          0.0640          0.4344 
       68450.00          0.0593          0.4444 
       68500.00          0.0580          0.4459 
       68550.00          0.0643          0.4508 
       68600.00          0.0616          0.4294 
       68650.00          0.0634          0.4428 
       68700.00          0.0694          0.4331 
       68750.00          0.0774          0.4550 
       68800.00          0.0362          0.4437 
       68850.00          0.0893          0.4317 
       68900.00          0.1050          0.4258 
       68950.00          0.0194          0.4486 
       69000.00          0.0666          0.4455 
       69050.00          0.0493          0.4534 
       69100.00          0.0546          0.4458 
       69150.00          0.0814          0.4544 
       69200.00          0.0748          0.4339 
       69250.00          0.0731          0.4308 
       69300.00          0.0541          0.4389 
       69350.00          0.0565          0.4472 
       69400.00          0.0493          0.4443 
       69450.00          0.0727          0.4557 
       69500.00          0.0432          0.4550 
       69550.00          0.0379          0.4410 
       69600.00          0.0469          0.4482 
       69650.00          0.0351          0.4521 
       69700.00          0.0557          0.4494 
       69750.00          0.0545          0.4511 
       69800.00          0.0646          0.4537 
       69850.00          0.0791          0.4394 
       69900.00          0.0766          0.4418 
       69950.00          0.0534          0.4415 
       70000.00          0.0916          0.4517 
       70050.00          0.0525          0.4488 
       70100.00          0.0589          0.4492 
       70150.00          0.0668          0.4406 
       70200.00          0.0859          0.4355 
       70250.00          0.0758          0.4398 
       70300.00          0.0439          0.4542 
       70350.00          0.0286          0.4403 
       70400.00          0.0747          0.4398 
       70450.00          0.0525          0.4563 
       70500.00          0.0608          0.4387 
       70550.00          0.0592          0.4416 
       70600.00          0.0967          0.4303 
       70650.00          0.0749          0.4373 
       70700.00          0.0492          0.4460 
       70750.00          0.0494          0.4393 
       70800.00          0.0535          0.4429 
       70850.00          0.0356          0.4449 
       70900.00          0.0717          0.4385 
       70950.00          0.0546          0.4538 
       71000.00          0.0862          0.4509 
       71050.00          0.0547          0.4433 
       71100.00          0.0603          0.4479 
       71150.00          0.0437          0.4450 
       71200.00          0.0572          0.4466 
       71250.00          0.0835          0.4470 
       71300.00          0.0889          0.4409 
       71350.00          0.0498          0.4432 
       71400.00          0.0539          0.4427 
       71450.00          0.0787          0.4340 
       71500.00          0.1042          0.4298 
       71550.00          0.0957          0.4414 
       71600.00          0.0608          0.4339 
       71650.00          0.0510          0.4352 
       71700.00          0.0602          0.4373 
       71750.00          0.0601          0.4354 
       71800.00          0.1029          0.4427 
       71850.00          0.0573          0.4366 
       71900.00          0.0382          0.4478 
       71950.00          0.0247          0.4541 
       72000.00          0.0500          0.4570 
       72050.00          0.0535          0.4443 
       72100.00          0.0505          0.4457 
       72150.00          0.0619          0.4435 
       72200.00          0.0655          0.4401 
       72250.00          0.0788          0.4433 
       72300.00          0.0585          0.4468 
       72350.00          0.0714          0.4366 
       72400.00          0.0622          0.4394 
       72450.00          0.0643          0.4576 
       72500.00          0.0938          0.4382 
       72550.00          0.0490          0.4503 
       72600.00          0.0507          0.4436 
       72650.00          0.0637          0.4414 
       72700.00          0.0642          0.4473 
       72750.00          0.0699          0.4262 
       72800.00          0.0683          0.4409 
       72850.00          0.0974          0.4438 
       72900.00          0.1014          0.4318 
       72950.00          0.0461          0.4570 
       73000.00          0.0367          0.4484 
       73050.00          0.0535          0.4401 
       73100.00          0.0704          0.4513 
       73150.00          0.0832          0.4374 
       73200.00          0.1038          0.4399 
       73250.00          0.0829          0.4410 
       73300.00          0.0528          0.4452 
       73350.00          0.0673          0.4456 
       73400.00          0.0474          0.4549 
       73450.00          0.0707          0.4430 
       73500.00          0.0474          0.4471 
       73550.00          0.0936          0.4427 
       73600.00          0.0376          0.4411 
       73650.00          0.0468          0.4448 
       73700.00          0.0996          0.4399 
       73750.00          0.0299          0.4481 
       73800.00          0.0481          0.4468 
       73850.00          0.0794          0.4328 
       73900.00          0.0613          0.4449 
       73950.00          0.0566          0.4444 
       74000.00          0.1027          0.4363 
       74050.00          0.1140          0.4278 
       74100.00          0.0900          0.4337 
       74150.00          0.0967          0.4273 
       74200.00          0.0598          0.4447 
       74250.00          0.0562          0.4344 
       74300.00          0.0670          0.4497 
       74350.00          0.0920          0.4370 
       74400.00          0.0599          0.4387 
       74450.00          0.1003          0.4354 
       74500.00          0.0735          0.4455 
       74550.00          0.0782          0.4510 
       74600.00          0.0576          0.4449 
       74650.00          0.0961          0.4382 
       74700.00          0.1007          0.4385 
       74750.00          0.0950          0.4444 
       74800.00          0.0966          0.4315 
       74850.00          0.0672          0.4512 
       74900.00          0.0575          0.4475 
       74950.00          0.0678          0.4451 
       75000.00          0.0709          0.4487 
       75050.00          0.0567          0.4445 
       75100.00          0.0616          0.4366 
       75150.00          0.0774          0.4433 
       75200.00          0.0558          0.4408 
       75250.00          0.0451          0.4518 
       75300.00          0.0690          0.4513 
       75350.00          0.0516          0.4540 
       75400.00          0.0991          0.4301 
       75450.00          0.0336          0.4491 
       75500.00          0.0895          0.4336 
       75550.00          0.0853          0.4469 
       75600.00          0.0718          0.4361 
       75650.00          0.0722          0.4435 
       75700.00          0.0627          0.4566 
       75750.00          0.0626          0.4373 
       75800.00          0.0759          0.4421 
       75850.00          0.0849          0.4200 
       75900.00          0.0627          0.4405 
       75950.00          0.0771          0.4440 
       76000.00          0.0560          0.4402 
       76050.00          0.0479          0.4483 
       76100.00          0.0685          0.4413 
       76150.00          0.0919          0.4331 
       76200.00          0.0524          0.4463 
       76250.00          0.0638          0.4456 
       76300.00          0.0977          0.4427 
       76350.00          0.0763          0.4389 
       76400.00          0.0762          0.4513 
       76450.00          0.0749          0.4404 
       76500.00          0.0602          0.4466 
       76550.00          0.0798          0.4419 
       76600.00          0.0585          0.4486 
       76650.00          0.1100          0.4413 
       76700.00          0.0590          0.4388 
       76750.00          0.0630          0.4466 
       76800.00          0.0933          0.4284 
       76850.00          0.0557          0.4322 
       76900.00          0.0551          0.4402 
       76950.00          0.1015          0.4399 
       77000.00          0.0717          0.4346 
       77050.00          0.0758          0.4493 
       77100.00          0.0559          0.4435 
       77150.00          0.0684          0.4443 
       77200.00          0.0372          0.4536 
       77250.00          0.0461          0.4458 
       77300.00          0.0826          0.4450 
       77350.00          0.1445          0.4204 
       77400.00          0.1683          0.4277 
       77450.00          0.2201          0.4125 
       77500.00          0.1776          0.4311 
       77550.00          0.1693          0.4374 
       77600.00          0.1906          0.4242 
       77650.00          0.1630          0.4397 
       77700.00          0.1716          0.4364 
       77750.00          0.1048          0.4707 
       77800.00          0.0671          0.4536 
       77850.00          0.0544          0.4475 
       77900.00          0.0578          0.4451 
       77950.00          0.1001          0.4408 
       78000.00          0.0920          0.4377 
       78050.00          0.0770          0.4403 
       78100.00          0.0664          0.4456 
       78150.00          0.0599          0.4543 
       78200.00          0.0619          0.4485 
       78250.00          0.0412          0.4560 
       78300.00          0.0619          0.4527 
       78350.00          0.0829          0.4459 
       78400.00          0.0514          0.4424 
       78450.00          0.0628          0.4475 
       78500.00          0.0865          0.4321 
       78550.00          0.0361          0.4539 
       78600.00          0.0761          0.4594 
       78650.00          0.0285          0.4487 
       78700.00          0.0605          0.4417 
       78750.00          0.0761          0.4523 
       78800.00          0.0708          0.4405 
       78850.00          0.0721          0.4356 
       78900.00          0.0531          0.4465 
       78950.00          0.1253          0.4365 
       79000.00          0.0830          0.4387 
       79050.00          0.0645          0.4581 
       79100.00          0.0613          0.4452 
       79150.00          0.0576          0.4413 
       79200.00          0.0661          0.4451 
       79250.00          0.0803          0.4333 
       79300.00          0.1091          0.4467 
       79350.00          0.0670          0.4586 
       79400.00          0.0495          0.4520 
       79450.00          0.0980          0.4348 
       79500.00          0.0466          0.4462 
       79550.00          0.0707          0.4453 
       79600.00          0.0404          0.4449 
       79650.00          0.0709          0.4434 
       79700.00          0.1046          0.4387 
       79750.00          0.0653          0.4390 
       79800.00          0.0602          0.4442 
       79850.00          0.0796          0.4423 
       79900.00          0.1270          0.4316 
       79950.00          0.0508          0.4423 
       80000.00          0.0733          0.4531 
       80050.00          0.0745          0.4431 
       80100.00          0.0858          0.4493 
       80150.00          0.0472          0.4400 
       80200.00          0.0624          0.4360 
       80250.00          0.0478          0.4423 
       80300.00          0.1122          0.4432 
       80350.00          0.0577          0.4417 
       80400.00          0.0770          0.4392 
       80450.00          0.0938          0.4462 
       80500.00          0.0329          0.4462 
       80550.00          0.0610          0.4552 
       80600.00          0.0495          0.4539 
       80650.00          0.0688          0.4516 
       80700.00          0.0820          0.4458 
       80750.00          0.0836          0.4339 
       80800.00          0.0612          0.4346 
       80850.00          0.0862          0.4398 
       80900.00          0.0555          0.4424 
       80950.00          0.0562          0.4487 
       81000.00          0.0966          0.4303 
       81050.00          0.0850          0.4359 
       81100.00          0.0544          0.4417 
       81150.00          0.0538          0.4516 
       81200.00          0.0399          0.4422 
       81250.00          0.0512          0.4417 
       81300.00          0.0922          0.4360 
       81350.00          0.0632          0.4504 
       81400.00          0.0814          0.4499 
       81450.00          0.0748          0.4395 
       81500.00          0.0700          0.4362 
       81550.00          0.1137          0.4368 
       81600.00          0.0491          0.4366 
       81650.00          0.0472          0.4457 
       81700.00          0.0556          0.4505 
       81750.00          0.0821          0.4392 
       81800.00          0.0503          0.4404 
       81850.00          0.0823          0.4371 
       81900.00          0.0486          0.4431 
       81950.00          0.0450          0.4532 
       82000.00          0.0640          0.4542 
       82050.00          0.0756          0.4459 
       82100.00          0.0844          0.4443 
       82150.00          0.0851          0.4491 
       82200.00          0.0616          0.4473 
       82250.00          0.0450          0.4440 
       82300.00          0.0627          0.4381 
       82350.00          0.0825          0.4341 
       82400.00          0.0587          0.4437 
       82450.00          0.0425          0.4478 
       82500.00          0.0675          0.4469 
       82550.00          0.0620          0.4450 
       82600.00          0.1242          0.4186 
       82650.00          0.0911          0.4384 
       82700.00          0.1358          0.4069 
       82750.00          0.1435          0.4192 
       82800.00          0.0683          0.4408 
       82850.00          0.0797          0.4333 
       82900.00          0.0792          0.4389 
       82950.00          0.0891          0.4385 
       83000.00          0.0712          0.4499 
       83050.00          0.0654          0.4492 
       83100.00          0.0437          0.4538 
       83150.00          0.0848          0.4449 
       83200.00          0.0239          0.4462 
       83250.00          0.0287          0.4507 
       83300.00          0.0876          0.4403 
       83350.00          0.0610          0.4539 
       83400.00          0.0584          0.4439 
       83450.00          0.0442          0.4451 
       83500.00          0.0896          0.4476 
       83550.00          0.0807          0.4403 
       83600.00          0.0681          0.4502 
       83650.00          0.0599          0.4364 
       83700.00          0.1216          0.4323 
       83750.00          0.0465          0.4478 
       83800.00          0.0186          0.4496 
       83850.00          0.0823          0.4484 
       83900.00          0.0889          0.4418 
       83950.00          0.1020          0.4375 
       84000.00          0.1002          0.4380 
       84050.00          0.0739          0.4420 
       84100.00          0.0930          0.4407 
       84150.00          0.0913          0.4481 
       84200.00          0.0733          0.4394 
       84250.00          0.0818          0.4531 
       84300.00          0.0892          0.4363 
       84350.00          0.0609          0.4287 
       84400.00          0.0288          0.4519 
       84450.00          0.0718          0.4313 
       84500.00          0.0356          0.4591 
       84550.00          0.0435          0.4481 
       84600.00          0.0715          0.4398 
       84650.00          0.0763          0.4534 
       84700.00          0.0485          0.4470 
       84750.00          0.0324          0.4505 
       84800.00          0.0501          0.4448 
       84850.00          0.0519          0.4333 
       84900.00          0.0312          0.4458 
       84950.00          0.0383          0.4529 
       85000.00          0.0509          0.4495 
       85050.00          0.0908          0.4399 
       85100.00          0.0870          0.4397 
       85150.00          0.0808          0.4479 
       85200.00          0.0489          0.4491 
       85250.00          0.0589          0.4453 
       85300.00          0.0457          0.4427 
       85350.00          0.0627          0.4444 
       85400.00          0.0672          0.4451 
       85450.00          0.0534          0.4379 
       85500.00          0.0586          0.4452 
       85550.00          0.0827          0.4307 
       85600.00          0.0515          0.4382 
       85650.00          0.0946          0.4390 
       85700.00          0.0504          0.4435 
       85750.00          0.0505          0.4403 
       85800.00          0.0328          0.4464 
       85850.00          0.0507          0.4429 
       85900.00          0.0497          0.4465 
       85950.00          0.0518          0.4442 
       86000.00          0.0666          0.4575 
       86050.00          0.1049          0.4270 
       86100.00          0.0693          0.4461 
       86150.00          0.1039          0.4400 
       86200.00          0.1151          0.4420 
       86250.00          0.1530          0.4080 
       86300.00          0.0895          0.4399 
       86350.00          0.0835          0.4317 
       86400.00          0.0996          0.4368 
       86450.00          0.0900          0.4344 
       86500.00          0.0758          0.4453 
       86550.00          0.0880          0.4419 
       86600.00          0.0503          0.4433 
       86650.00          0.0909          0.4469 
       86700.00          0.0623          0.4519 
       86750.00          0.0686          0.4530 
       86800.00          0.0607          0.4467 
       86850.00          0.0991          0.4421 
       86900.00          0.0490          0.4429 
       86950.00          0.0735          0.4382 
       87000.00          0.0799          0.4455 
       87050.00          0.0365          0.4521 
       87100.00          0.0645          0.4467 
       87150.00          0.0821          0.4394 
       87200.00          0.0672          0.4567 
       87250.00          0.0571          0.4466 
       87300.00          0.0475          0.4532 
       87350.00          0.0672          0.4511 
       87400.00          0.0645          0.4450 
       87450.00          0.0726          0.4430 
       87500.00          0.0566          0.4427 
       87550.00          0.0671          0.4480 
       87600.00          0.0820          0.4220 
       87650.00          0.0632          0.4455 
       87700.00          0.0625          0.4482 
       87750.00          0.0750          0.4435 
       87800.00          0.0659          0.4469 
       87850.00          0.0964          0.4429 
       87900.00          0.0591          0.4433 
       87950.00          0.0718          0.4338 
       88000.00          0.1159          0.4331 
       88050.00          0.0670          0.4325 
       88100.00          0.0843          0.4403 
       88150.00          0.0687          0.4410 
       88200.00          0.0842          0.4395 
       88250.00          0.0793          0.4356 
       88300.00          0.0345          0.4558 
       88350.00          0.0565          0.4507 
       88400.00          0.0705          0.4493 
       88450.00          0.0699          0.4332 
       88500.00          0.0614          0.4477 
       88550.00          0.0626          0.4453 
       88600.00          0.0873          0.4371 
       88650.00          0.0889          0.4380 
       88700.00          0.0883          0.4403 
       88750.00          0.0641          0.4392 
       88800.00          0.0513          0.4471 
       88850.00          0.0268          0.4464 
       88900.00          0.0807          0.4310 
       88950.00          0.0639          0.4385 
       89000.00          0.0635          0.4582 
       89050.00          0.0693          0.4384 
       89100.00          0.0777          0.4423 
       89150.00          0.0864          0.4372 
       89200.00          0.0825          0.4407 
       89250.00          0.0831          0.4443 
       89300.00          0.1319          0.4287 
       89350.00          0.0966          0.4435 
       89400.00          0.0486          0.4496 
       89450.00          0.0794          0.4503 
       89500.00          0.0814          0.4447 
       89550.00          0.0566          0.4479 
       89600.00          0.0965          0.4426 
       89650.00          0.0537          0.4470 
       89700.00          0.0552          0.4535 
       89750.00          0.0912          0.4343 
       89800.00          0.0489          0.4733 
       89850.00          0.0659          0.4558 
       89900.00          0.0689          0.4487 
       89950.00          0.0907          0.4280 
       90000.00          0.0751          0.4455 
       90050.00          0.0922          0.4377 
       90100.00          0.1067          0.4327 
       90150.00          0.0725          0.4449 
       90200.00          0.0698          0.4510 
       90250.00          0.0594          0.4510 
       90300.00          0.0923          0.4418 
       90350.00          0.0709          0.4508 
       90400.00          0.0919          0.4443 
       90450.00          0.1076          0.4448 
       90500.00          0.1289          0.4359 
       90550.00          0.1125          0.4589 
       90600.00          0.1658          0.4224 
       90650.00          0.1408          0.4510 
       90700.00          0.1413          0.4338 
       90750.00          0.1186          0.4655 
       90800.00          0.0769          0.4790 
       90850.00          0.0966          0.4733 
       90900.00          0.0799          0.4514 
       90950.00          0.1398          0.4359 
       91000.00          0.1542          0.4432 
       91050.00          0.1115          0.4633 
       91100.00          0.1158          0.4707 
       91150.00          0.1303          0.4640 
       91200.00          0.0783          0.4694 
       91250.00          0.1142          0.4655 
       91300.00          0.1134          0.4720 
       91350.00          0.1074          0.4680 
       91400.00          0.1174          0.4457 
       91450.00          0.1219          0.4683 
       91500.00          0.0939          0.4641 
       91550.00          0.1294          0.4487 
       91600.00          0.1016          0.4593 
       91650.00          0.0804          0.4385 
       91700.00          0.1130          0.4499 
       91750.00          0.0678          0.4463 
       91800.00          0.0527          0.4595 
       91850.00          0.0708          0.4400 
       91900.00          0.0504          0.4472 
       91950.00          0.0485          0.4373 
       92000.00          0.0416          0.4483 
       92050.00          0.0895          0.4441 
       92100.00          0.0735          0.4416 
       92150.00          0.0385          0.4395 
       92200.00          0.0498          0.4539 
       92250.00          0.0466          0.4527 
       92300.00          0.0877          0.4546 
       92350.00          0.1811          0.4310 
       92400.00          0.2076          0.4208 
       92450.00          0.1799          0.4248 
       92500.00          0.2145          0.4163 
       92550.00          0.1747          0.4281 
       92600.00          0.1780          0.4276 
       92650.00          0.2259          0.3972 
       92700.00          0.2196          0.4042 
       92750.00          0.2184          0.4116 
       92800.00          0.2239          0.4073 
       92850.00          0.1779          0.4244 
       92900.00          0.2029          0.4177 
       92950.00          0.2099          0.4118 
       93000.00          0.2215          0.4001 
       93050.00          0.2422          0.3944 
       93100.00          0.1999          0.4136 
       93150.00          0.2026          0.4112 
       93200.00          0.2197          0.4022 
       93250.00          0.1903          0.4154 
       93300.00          0.1322          0.4591 
       93350.00          0.1004          0.4529 
       93400.00          0.0616          0.4578 
       93450.00          0.1032          0.4345 
       93500.00          0.0646          0.4335 
       93550.00          0.0622          0.4461 
       93600.00          0.0816          0.4413 
       93650.00          0.0890          0.4304 
       93700.00          0.0745          0.4390 
       93750.00          0.0718          0.4517 
       93800.00          0.0518          0.4407 
       93850.00          0.0508          0.4486 
       93900.00          0.0703          0.4274 
       93950.00          0.0589          0.4485 
       94000.00          0.0861          0.4445 
       94050.00          0.0589          0.4498 
       94100.00          0.0579          0.4393 
       94150.00          0.0760          0.4418 
       94200.00          0.0562          0.4472 
       94250.00          0.0702          0.4375 
       94300.00          0.0855          0.4631 
       94350.00          0.1828          0.4267 
       94400.00          0.1976          0.4236 
       94450.00          0.1597          0.4322 
       94500.00          0.1867          0.4307 
       94550.00          0.1961          0.4256 
       94600.00          0.1792          0.4210 
       94650.00          0.2152          0.4008 
       94700.00          0.2083          0.4108 
       94750.00          0.2024          0.4089 
       94800.00          0.2311          0.3805 
       94850.00          0.2259          0.3926 
       94900.00          0.1741          0.4376 
       94950.00          0.0606          0.4679 
       95000.00          0.0244          0.4488 
       95050.00          0.0633          0.4366 
       95100.00          0.0720          0.4372 
       95150.00          0.0841          0.4492 
       95200.00          0.0363          0.4431 
       95250.00          0.1110          0.4281 
       95300.00          0.0849          0.4636 
       95350.00          0.1058          0.4765 
       95400.00          0.1046          0.4580 
       95450.00          0.1104          0.4599 
       95500.00          0.1080          0.4420 
       95550.00          0.1108          0.4582 
       95600.00          0.1005          0.4813 
       95650.00          0.0891          0.4793 
       95700.00          0.1711          0.4333 
       95750.00          0.1234          0.4496 
       95800.00          0.2173          0.4118 
       95850.00          0.2815          0.3644 
       95900.00          0.1949          0.4242 
       95950.00          0.2422          0.3958 
       96000.00          0.1850          0.4282 
       96050.00          0.1602          0.4336 
       96100.00          0.2318          0.4127 
       96150.00          0.2571          0.3927 
       96200.00          0.2458          0.3811 
       96250.00          0.2117          0.4383 
       96300.00          0.2426          0.4026 
       96350.00          0.2540          0.3747 
       96400.00          0.2048          0.4230 
       96450.00          0.2466          0.4080 
       96500.00          0.2397          0.3955 
       96550.00          0.1653          0.4432 
       96600.00          0.1849          0.4253 
       96650.00          0.1947          0.4283 
       96700.00          0.1287          0.4145 
       96750.00          0.0696          0.4375 
       96800.00          0.0319          0.4495 
       96850.00          0.0602          0.4444 
       96900.00          0.0782          0.4383 
       96950.00          0.0741          0.4329 
       97000.00          0.0820          0.4461 
       97050.00          0.0476          0.4391 
       97100.00          0.0933          0.4458 
       97150.00          0.0501          0.4485 
       97200.00          0.0546          0.4459 
       97250.00          0.0613          0.4408 
       97300.00          0.0830          0.4492 
       97350.00          0.0723          0.4514 
       97400.00          0.0676          0.4594 
       97450.00          0.0964          0.4350 
       97500.00          0.0845          0.4460 
       97550.00          0.0948          0.4376 
       97600.00          0.0687          0.4374 
       97650.00          0.0958          0.4427 
       97700.00          0.0994          0.4356 
       97750.00          0.0381          0.4486 
       97800.00          0.0679          0.4416 
       97850.00          0.0690          0.4482 
       97900.00          0.0801          0.4382 
       97950.00          0.1237          0.4637 
       98000.00          0.2163          0.4179 
       98050.00          0.1775          0.4332 
       98100.00          0.1696          0.4372 
       98150.00          0.1773          0.4244 
       98200.00          0.1691          0.4299 
       98250.00          0.2195          0.4222 
       98300.00          0.2007          0.4265 
       98350.00          0.1866          0.4227 
       98400.00          0.1863          0.4324 
       98450.00          0.1933          0.4170 
       98500.00          0.1854          0.4186 
       98550.00          0.2074          0.4173 
       98600.00          0.1817          0.4260 
       98650.00          0.1889          0.4279 
       98700.00          0.1978          0.4131 
       98750.00          0.2039          0.4063 
       98800.00          0.1699          0.4319 
       98850.00          0.1888          0.4173 
       98900.00          0.2088          0.4164 
       98950.00          0.1730          0.4188 
       99000.00          0.1675          0.4334 
       99050.00          0.1714          0.4372 
       99100.00          0.1753          0.4359 
       99150.00          0.1645          0.4345 
       99200.00          0.1782          0.4238 
       99250.00          0.1879          0.4091 
       99300.00          0.1962          0.4137 
       99350.00          0.1660          0.4364 
       99400.00          0.1852          0.4204 
       99450.00          0.1809          0.4286 
       99500.00          0.1965          0.4161 
       99550.00          0.2117          0.4154 
       99600.00          0.1954          0.4222 
       99650.00          0.1759          0.4197 
       99700.00          0.1817          0.4314 
       99750.00          0.1924          0.4205 
       99800.00          0.1667          0.4280 
       99850.00          0.1659          0.4215 
       99900.00          0.2121          0.4226 
       99950.00          0.1646          0.4272 
      100000.00          0.1976          0.4363 
